timestamps,eeg_1,eeg_2,eeg_3,eeg_4
1531743875.3729846,852.09979248,838.940002441,834.0050048830001,834.0050048830001
1531743875.377533,842.229919434,834.0050048830001,837.29498291,837.29498291
1531743875.3820815,847.164855957,840.584960938,843.874938965,830.715087891
1531743875.3866305,852.09979248,840.584960938,837.29498291,838.940002441
1531743875.3911793,845.519897461,832.360046387,827.425109863,832.360046387
1531743875.3957276,850.454833984,832.360046387,834.0050048830001,827.425109863
1531743875.4002762,848.809875488,832.360046387,838.940002441,830.715087891
1531743875.404825,840.584960938,830.715087891,840.584960938,832.360046387
1531743875.4093735,847.164855957,837.29498291,840.584960938,834.0050048830001
1531743875.4139225,842.229919434,838.940002441,832.360046387,834.0050048830001
1531743875.4184706,850.454833984,835.650024414,837.29498291,835.650024414
1531743875.4230196,855.3897705080001,838.940002441,837.29498291,840.584960938
1531743875.4275682,853.744812012,837.29498291,840.584960938,840.584960938
1531743875.4321167,857.0347290039999,835.650024414,838.940002441,838.940002441
1531743875.4366655,860.3247070310001,840.584960938,842.229919434,843.874938965
1531743875.441214,857.0347290039999,837.29498291,835.650024414,840.584960938
1531743875.4457624,860.3247070310001,838.940002441,822.49017334,832.360046387
1531743875.4503114,853.744812012,837.29498291,832.360046387,827.425109863
1531743875.45486,847.164855957,834.0050048830001,830.715087891,824.135131836
1531743875.4594088,845.519897461,838.940002441,842.229919434,827.425109863
1531743875.4639573,852.09979248,840.584960938,843.874938965,827.425109863
1531743875.468506,858.679748535,843.874938965,840.584960938,835.650024414
1531743875.4730544,852.09979248,843.874938965,838.940002441,832.360046387
1531743875.4776034,852.09979248,840.584960938,837.29498291,830.715087891
1531743875.482152,852.09979248,842.229919434,838.940002441,830.715087891
1531743875.4867005,847.164855957,834.0050048830001,835.650024414,824.135131836
1531743875.4912493,853.744812012,835.650024414,835.650024414,825.7801513669999
1531743875.495798,857.0347290039999,837.29498291,832.360046387,829.070068359
1531743875.5003464,847.164855957,837.29498291,829.070068359,830.715087891
1531743875.5048952,855.3897705080001,838.940002441,835.650024414,832.360046387
1531743875.5094438,858.679748535,834.0050048830001,832.360046387,834.0050048830001
1531743875.5139925,855.3897705080001,837.29498291,834.0050048830001,838.940002441
1531743875.518541,861.969726562,842.229919434,840.584960938,840.584960938
1531743875.5230894,857.0347290039999,838.940002441,835.650024414,834.0050048830001
1531743875.5276384,845.519897461,834.0050048830001,840.584960938,835.650024414
1531743875.532187,848.809875488,838.940002441,840.584960938,829.070068359
1531743875.5367355,842.229919434,835.650024414,837.29498291,824.135131836
1531743875.5412846,838.940002441,835.650024414,837.29498291,819.200195312
1531743875.5458329,848.809875488,835.650024414,843.874938965,830.715087891
1531743875.5503814,852.09979248,837.29498291,838.940002441,832.360046387
1531743875.5549302,857.0347290039999,840.584960938,835.650024414,837.29498291
1531743875.5594788,850.454833984,842.229919434,840.584960938,837.29498291
1531743875.5640275,850.454833984,840.584960938,835.650024414,830.715087891
1531743875.5685759,848.809875488,838.940002441,840.584960938,834.0050048830001
1531743875.573125,857.0347290039999,840.584960938,838.940002441,830.715087891
1531743875.5776734,861.969726562,838.940002441,835.650024414,835.650024414
1531743875.582222,855.3897705080001,842.229919434,838.940002441,832.360046387
1531743875.5867708,858.679748535,838.940002441,838.940002441,840.584960938
1531743875.5913193,858.679748535,837.29498291,842.229919434,845.519897461
1531743875.5958679,853.744812012,847.164855957,837.29498291,832.360046387
1531743875.600417,853.744812012,835.650024414,830.715087891,824.135131836
1531743875.6049652,858.679748535,852.09979248,829.070068359,825.7801513669999
1531743875.609514,858.679748535,852.09979248,827.425109863,834.0050048830001
1531743875.6140625,857.0347290039999,850.454833984,822.49017334,832.360046387
1531743875.6186113,857.0347290039999,852.09979248,820.8452148439999,834.0050048830001
1531743875.62316,850.454833984,850.454833984,820.8452148439999,822.49017334
1531743875.6277087,847.164855957,845.519897461,817.555236816,825.7801513669999
1531743875.6322572,847.164855957,842.229919434,815.91027832,829.070068359
1531743875.6368058,840.584960938,848.809875488,824.135131836,822.49017334
1531743875.6413546,840.584960938,842.229919434,825.7801513669999,822.49017334
1531743875.6459033,853.744812012,853.744812012,827.425109863,825.7801513669999
1531743875.6504517,863.614685059,861.969726562,822.49017334,830.715087891
1531743875.6550007,868.549621582,840.584960938,812.620300293,825.7801513669999
1531743875.659549,871.839599609,847.164855957,820.8452148439999,834.0050048830001
1531743875.6640975,881.7094726560001,850.454833984,825.7801513669999,830.715087891
1531743875.6686466,875.129516602,847.164855957,824.135131836,825.7801513669999
1531743875.6731946,876.7745361330001,848.809875488,824.135131836,838.940002441
1531743875.6777437,880.064453125,853.744812012,819.200195312,840.584960938
1531743875.6822922,880.064453125,852.09979248,824.135131836,835.650024414
1531743875.686841,875.129516602,850.454833984,829.070068359,838.940002441
1531743875.6913896,870.1945800780001,840.584960938,829.070068359,832.360046387
1531743875.695938,868.549621582,838.940002441,832.360046387,837.29498291
1531743875.7004867,857.0347290039999,838.940002441,832.360046387,837.29498291
1531743875.7050354,857.0347290039999,850.454833984,830.715087891,837.29498291
1531743875.7095842,858.679748535,850.454833984,829.070068359,834.0050048830001
1531743875.7141328,848.809875488,837.29498291,832.360046387,832.360046387
1531743875.7186813,861.969726562,835.650024414,835.650024414,840.584960938
1531743875.7232301,855.3897705080001,840.584960938,837.29498291,835.650024414
1531743875.7277787,857.0347290039999,847.164855957,837.29498291,829.070068359
1531743875.7323275,847.164855957,838.940002441,814.265258789,829.070068359
1531743875.736876,850.454833984,837.29498291,824.135131836,829.070068359
1531743875.7414243,863.614685059,840.584960938,830.715087891,830.715087891
1531743875.7459733,855.3897705080001,835.650024414,829.070068359,835.650024414
1531743875.7505221,863.614685059,838.940002441,830.715087891,837.29498291
1531743875.7550707,865.259643555,843.874938965,824.135131836,834.0050048830001
1531743875.7596192,863.614685059,842.229919434,834.0050048830001,838.940002441
1531743875.7641678,861.969726562,852.09979248,838.940002441,842.229919434
1531743875.7687163,861.969726562,845.519897461,835.650024414,838.940002441
1531743875.7732651,855.3897705080001,834.0050048830001,832.360046387,840.584960938
1531743875.7778141,857.0347290039999,842.229919434,830.715087891,824.135131836
1531743875.7823625,857.0347290039999,837.29498291,827.425109863,825.7801513669999
1531743875.786911,847.164855957,843.874938965,835.650024414,832.360046387
1531743875.7914598,847.164855957,835.650024414,827.425109863,829.070068359
1531743875.7960086,857.0347290039999,834.0050048830001,832.360046387,832.360046387
1531743875.8005571,857.0347290039999,838.940002441,840.584960938,832.360046387
1531743875.8051054,866.904663086,842.229919434,834.0050048830001,830.715087891
1531743875.8096542,866.904663086,847.164855957,834.0050048830001,838.940002441
1531743875.814203,870.1945800780001,843.874938965,838.940002441,842.229919434
1531743875.8187516,873.484558105,838.940002441,835.650024414,837.29498291
1531743875.8233006,865.259643555,835.650024414,834.0050048830001,838.940002441
1531743875.827849,861.969726562,842.229919434,829.070068359,837.29498291
1531743875.8323975,860.3247070310001,845.519897461,835.650024414,835.650024414
1531743875.8369462,853.744812012,837.29498291,838.940002441,835.650024414
1531743875.8414948,855.3897705080001,838.940002441,834.0050048830001,842.229919434
1531743875.8460436,850.454833984,834.0050048830001,838.940002441,842.229919434
1531743875.850592,852.09979248,832.360046387,830.715087891,838.940002441
1531743875.855141,855.3897705080001,837.29498291,835.650024414,845.519897461
1531743875.8596895,853.744812012,837.29498291,838.940002441,842.229919434
1531743875.864238,852.09979248,837.29498291,832.360046387,834.0050048830001
1531743875.8687868,853.744812012,842.229919434,837.29498291,838.940002441
1531743875.8733356,850.454833984,840.584960938,840.584960938,824.135131836
1531743875.877884,852.09979248,834.0050048830001,842.229919434,830.715087891
1531743875.8824327,850.454833984,830.715087891,843.874938965,837.29498291
1531743875.8869812,848.809875488,835.650024414,842.229919434,835.650024414
1531743875.89153,850.454833984,834.0050048830001,843.874938965,842.229919434
1531743875.8960786,853.744812012,837.29498291,837.29498291,842.229919434
1531743875.9006274,857.0347290039999,842.229919434,842.229919434,840.584960938
1531743875.905176,858.679748535,834.0050048830001,834.0050048830001,845.519897461
1531743875.9097245,858.679748535,838.940002441,835.650024414,843.874938965
1531743875.9142733,855.3897705080001,835.650024414,835.650024414,843.874938965
1531743875.9188216,858.679748535,840.584960938,835.650024414,838.940002441
1531743875.9233706,853.744812012,840.584960938,837.29498291,829.070068359
1531743875.9279194,847.164855957,837.29498291,829.070068359,829.070068359
1531743875.9324675,838.940002441,834.0050048830001,837.29498291,825.7801513669999
1531743875.9370165,835.650024414,837.29498291,830.715087891,825.7801513669999
1531743875.941565,845.519897461,838.940002441,838.940002441,829.070068359
1531743875.9461136,848.809875488,838.940002441,840.584960938,830.715087891
1531743875.9506626,848.809875488,843.874938965,838.940002441,827.425109863
1531743875.9552107,852.09979248,838.940002441,838.940002441,827.425109863
1531743875.9597595,852.09979248,830.715087891,840.584960938,830.715087891
1531743875.9643085,853.744812012,838.940002441,838.940002441,830.715087891
1531743875.9688568,861.969726562,838.940002441,837.29498291,834.0050048830001
1531743875.9734054,858.679748535,837.29498291,843.874938965,832.360046387
1531743875.977954,852.09979248,840.584960938,835.650024414,830.715087891
1531743875.9825027,858.679748535,840.584960938,837.29498291,838.940002441
1531743875.9870515,861.969726562,838.940002441,842.229919434,842.229919434
1531743875.9916,860.3247070310001,837.29498291,837.29498291,847.164855957
1531743875.9961488,865.259643555,835.650024414,837.29498291,838.940002441
1531743876.0006974,860.3247070310001,840.584960938,840.584960938,835.650024414
1531743876.0052464,860.3247070310001,842.229919434,842.229919434,838.940002441
1531743876.0097947,858.679748535,840.584960938,842.229919434,832.360046387
1531743876.0143433,857.0347290039999,842.229919434,847.164855957,840.584960938
1531743876.018892,845.519897461,832.360046387,830.715087891,822.49017334
1531743876.0234404,847.164855957,835.650024414,835.650024414,820.8452148439999
1531743876.0279894,845.519897461,832.360046387,829.070068359,825.7801513669999
1531743876.0325382,842.229919434,832.360046387,840.584960938,817.555236816
1531743876.0370865,845.519897461,837.29498291,845.519897461,832.360046387
1531743876.0416353,847.164855957,838.940002441,837.29498291,824.135131836
1531743876.0461838,847.164855957,835.650024414,843.874938965,827.425109863
1531743876.0507324,858.679748535,835.650024414,832.360046387,835.650024414
1531743876.0552812,852.09979248,832.360046387,824.135131836,835.650024414
1531743876.0598295,848.809875488,830.715087891,834.0050048830001,827.425109863
1531743876.0643785,850.454833984,832.360046387,832.360046387,822.49017334
1531743876.068927,852.09979248,832.360046387,834.0050048830001,827.425109863
1531743876.0734758,857.0347290039999,834.0050048830001,827.425109863,824.135131836
1531743876.0780244,860.3247070310001,832.360046387,820.8452148439999,829.070068359
1531743876.0825727,860.3247070310001,837.29498291,824.135131836,830.715087891
1531743876.0871215,850.454833984,832.360046387,837.29498291,817.555236816
1531743876.0916705,852.09979248,834.0050048830001,840.584960938,827.425109863
1531743876.0962193,847.164855957,834.0050048830001,834.0050048830001,830.715087891
1531743876.1007676,842.229919434,830.715087891,830.715087891,819.200195312
1531743876.1053162,855.3897705080001,838.940002441,834.0050048830001,829.070068359
1531743876.109865,860.3247070310001,843.874938965,829.070068359,827.425109863
1531743876.1144135,853.744812012,838.940002441,834.0050048830001,834.0050048830001
1531743876.1189625,853.744812012,835.650024414,832.360046387,835.650024414
1531743876.1235108,848.809875488,834.0050048830001,832.360046387,830.715087891
1531743876.1280596,843.874938965,837.29498291,834.0050048830001,830.715087891
1531743876.1326082,852.09979248,832.360046387,837.29498291,827.425109863
1531743876.1371567,853.744812012,838.940002441,834.0050048830001,835.650024414
1531743876.1417055,850.454833984,834.0050048830001,829.070068359,829.070068359
1531743876.1462538,852.09979248,834.0050048830001,832.360046387,832.360046387
1531743876.1508026,843.874938965,835.650024414,825.7801513669999,830.715087891
1531743876.1553516,855.3897705080001,838.940002441,837.29498291,832.360046387
1531743876.1599,855.3897705080001,840.584960938,837.29498291,830.715087891
1531743876.1644487,857.0347290039999,838.940002441,834.0050048830001,825.7801513669999
1531743876.1689973,853.744812012,835.650024414,834.0050048830001,834.0050048830001
1531743876.1735456,853.744812012,840.584960938,830.715087891,830.715087891
1531743876.1780946,855.3897705080001,835.650024414,834.0050048830001,835.650024414
1531743876.1826432,850.454833984,832.360046387,842.229919434,829.070068359
1531743876.187192,843.874938965,834.0050048830001,843.874938965,820.8452148439999
1531743876.1917405,837.29498291,827.425109863,848.809875488,822.49017334
1531743876.1962893,830.715087891,834.0050048830001,842.229919434,817.555236816
1531743876.200838,829.070068359,825.7801513669999,842.229919434,817.555236816
1531743876.2053866,832.360046387,834.0050048830001,842.229919434,824.135131836
1531743876.2099352,835.650024414,832.360046387,843.874938965,825.7801513669999
1531743876.2144835,845.519897461,829.070068359,847.164855957,824.135131836
1531743876.2190325,845.519897461,834.0050048830001,837.29498291,827.425109863
1531743876.2235813,845.519897461,825.7801513669999,838.940002441,825.7801513669999
1531743876.2281294,855.3897705080001,835.650024414,842.229919434,829.070068359
1531743876.2326784,853.744812012,835.650024414,837.29498291,832.360046387
1531743876.237227,845.519897461,835.650024414,838.940002441,827.425109863
1531743876.2417755,843.874938965,835.650024414,847.164855957,829.070068359
1531743876.2463243,842.229919434,838.940002441,845.519897461,832.360046387
1531743876.2508726,837.29498291,830.715087891,845.519897461,834.0050048830001
1531743876.2554214,847.164855957,830.715087891,838.940002441,820.8452148439999
1531743876.2599704,837.29498291,829.070068359,835.650024414,819.200195312
1531743876.2645187,835.650024414,825.7801513669999,835.650024414,822.49017334
1531743876.2690675,840.584960938,829.070068359,837.29498291,825.7801513669999
1531743876.273616,832.360046387,827.425109863,835.650024414,829.070068359
1531743876.2781649,847.164855957,830.715087891,834.0050048830001,832.360046387
1531743876.2827134,847.164855957,829.070068359,835.650024414,832.360046387
1531743876.287262,845.519897461,834.0050048830001,840.584960938,832.360046387
1531743876.2918108,838.940002441,827.425109863,837.29498291,825.7801513669999
1531743876.296359,834.0050048830001,834.0050048830001,837.29498291,817.555236816
1531743876.300908,843.874938965,835.650024414,837.29498291,824.135131836
1531743876.3054564,847.164855957,837.29498291,834.0050048830001,827.425109863
1531743876.3100052,853.744812012,837.29498291,834.0050048830001,832.360046387
1531743876.314554,850.454833984,830.715087891,834.0050048830001,829.070068359
1531743876.3191025,845.519897461,832.360046387,835.650024414,825.7801513669999
1531743876.323651,848.809875488,832.360046387,825.7801513669999,835.650024414
1531743876.3282,845.519897461,837.29498291,834.0050048830001,832.360046387
1531743876.3327484,835.650024414,840.584960938,837.29498291,829.070068359
1531743876.3372972,850.454833984,834.0050048830001,835.650024414,830.715087891
1531743876.3418458,843.874938965,834.0050048830001,835.650024414,829.070068359
1531743876.3463945,847.164855957,835.650024414,835.650024414,832.360046387
1531743876.350943,850.454833984,834.0050048830001,835.650024414,832.360046387
1531743876.3554914,842.229919434,834.0050048830001,835.650024414,834.0050048830001
1531743876.3600404,838.940002441,830.715087891,832.360046387,822.49017334
1531743876.364589,850.454833984,835.650024414,834.0050048830001,825.7801513669999
1531743876.3691375,855.3897705080001,830.715087891,829.070068359,834.0050048830001
1531743876.3736866,852.09979248,834.0050048830001,830.715087891,834.0050048830001
1531743876.3782349,863.614685059,837.29498291,838.940002441,835.650024414
1531743876.3827837,853.744812012,835.650024414,838.940002441,837.29498291
1531743876.3873322,853.744812012,837.29498291,847.164855957,838.940002441
1531743876.3918808,848.809875488,838.940002441,843.874938965,832.360046387
1531743876.3964295,845.519897461,842.229919434,832.360046387,835.650024414
1531743876.4009778,847.164855957,837.29498291,837.29498291,827.425109863
1531743876.4055269,847.164855957,840.584960938,837.29498291,827.425109863
1531743876.4100757,848.809875488,837.29498291,838.940002441,829.070068359
1531743876.414624,850.454833984,838.940002441,838.940002441,837.29498291
1531743876.4191728,850.454833984,840.584960938,832.360046387,835.650024414
1531743876.4237213,858.679748535,840.584960938,830.715087891,830.715087891
1531743876.4282699,857.0347290039999,843.874938965,835.650024414,840.584960938
1531743876.4328187,847.164855957,835.650024414,840.584960938,832.360046387
1531743876.4373672,847.164855957,837.29498291,842.229919434,835.650024414
1531743876.441916,848.809875488,837.29498291,840.584960938,835.650024414
1531743876.4464645,855.3897705080001,838.940002441,840.584960938,837.29498291
1531743876.4510133,850.454833984,837.29498291,837.29498291,835.650024414
1531743876.4555619,855.3897705080001,842.229919434,837.29498291,840.584960938
1531743876.4601107,857.0347290039999,837.29498291,838.940002441,837.29498291
1531743876.4646592,855.3897705080001,840.584960938,835.650024414,834.0050048830001
1531743876.4692078,863.614685059,843.874938965,834.0050048830001,837.29498291
1531743876.4737566,860.3247070310001,842.229919434,835.650024414,834.0050048830001
1531743876.4783053,858.679748535,838.940002441,837.29498291,834.0050048830001
1531743876.4828534,857.0347290039999,838.940002441,835.650024414,834.0050048830001
1531743876.4874024,855.3897705080001,840.584960938,837.29498291,835.650024414
1531743876.491951,853.744812012,840.584960938,838.940002441,842.229919434
1531743876.4964998,855.3897705080001,840.584960938,840.584960938,842.229919434
1531743876.5010483,857.0347290039999,840.584960938,840.584960938,843.874938965
1531743876.5055966,858.679748535,837.29498291,842.229919434,843.874938965
1531743876.5101454,850.454833984,830.715087891,840.584960938,837.29498291
1531743876.5146945,853.744812012,837.29498291,837.29498291,837.29498291
1531743876.519243,857.0347290039999,835.650024414,840.584960938,838.940002441
1531743876.5237913,858.679748535,837.29498291,838.940002441,840.584960938
1531743876.52834,861.969726562,838.940002441,835.650024414,842.229919434
1531743876.5328887,858.679748535,835.650024414,837.29498291,842.229919434
1531743876.5374374,865.259643555,838.940002441,835.650024414,838.940002441
1531743876.5419862,860.3247070310001,840.584960938,834.0050048830001,838.940002441
1531743876.5465348,860.3247070310001,842.229919434,835.650024414,835.650024414
1531743876.551083,866.904663086,838.940002441,837.29498291,834.0050048830001
1531743876.555632,863.614685059,838.940002441,837.29498291,838.940002441
1531743876.5601807,866.904663086,837.29498291,835.650024414,843.874938965
1531743876.5647295,863.614685059,837.29498291,834.0050048830001,848.809875488
1531743876.569278,865.259643555,838.940002441,840.584960938,830.715087891
1531743876.5738266,858.679748535,840.584960938,834.0050048830001,825.7801513669999
1531743876.578375,858.679748535,835.650024414,837.29498291,832.360046387
1531743876.5829241,861.969726562,832.360046387,834.0050048830001,834.0050048830001
1531743876.5874727,855.3897705080001,840.584960938,834.0050048830001,837.29498291
1531743876.5920212,857.0347290039999,838.940002441,837.29498291,837.29498291
1531743876.5965698,852.09979248,832.360046387,838.940002441,834.0050048830001
1531743876.6011186,853.744812012,834.0050048830001,835.650024414,837.29498291
1531743876.605667,855.3897705080001,840.584960938,837.29498291,843.874938965
1531743876.610216,858.679748535,838.940002441,832.360046387,847.164855957
1531743876.6147645,861.969726562,840.584960938,837.29498291,842.229919434
1531743876.619313,863.614685059,838.940002441,842.229919434,845.519897461
1531743876.6238618,861.969726562,837.29498291,840.584960938,842.229919434
1531743876.6284106,865.259643555,845.519897461,840.584960938,845.519897461
1531743876.6329591,865.259643555,843.874938965,840.584960938,848.809875488
1531743876.6375074,853.744812012,830.715087891,845.519897461,845.519897461
1531743876.6420562,866.904663086,829.070068359,847.164855957,843.874938965
1531743876.646605,873.484558105,830.715087891,850.454833984,840.584960938
1531743876.6511536,866.904663086,825.7801513669999,843.874938965,847.164855957
1531743876.6557026,875.129516602,834.0050048830001,843.874938965,852.09979248
1531743876.6602507,878.4194946289999,832.360046387,845.519897461,850.454833984
1531743876.6647995,865.259643555,837.29498291,847.164855957,855.3897705080001
1531743876.6693482,865.259643555,830.715087891,843.874938965,855.3897705080001
1531743876.6738968,857.0347290039999,830.715087891,842.229919434,847.164855957
1531743876.6784456,860.3247070310001,829.070068359,853.744812012,848.809875488
1531743876.682994,868.549621582,827.425109863,837.29498291,834.0050048830001
1531743876.6875427,881.7094726560001,838.940002441,843.874938965,838.940002441
1531743876.6920915,883.354431152,837.29498291,842.229919434,842.229919434
1531743876.69664,883.354431152,835.650024414,843.874938965,848.809875488
1531743876.7011886,881.7094726560001,835.650024414,848.809875488,853.744812012
1531743876.7057376,875.129516602,829.070068359,848.809875488,850.454833984
1531743876.710286,860.3247070310001,830.715087891,845.519897461,848.809875488
1531743876.7148347,858.679748535,835.650024414,840.584960938,850.454833984
1531743876.7193832,857.0347290039999,835.650024414,848.809875488,850.454833984
1531743876.723932,857.0347290039999,835.650024414,843.874938965,845.519897461
1531743876.7284806,861.969726562,835.650024414,840.584960938,847.164855957
1531743876.7330294,857.0347290039999,838.940002441,843.874938965,845.519897461
1531743876.737578,863.614685059,840.584960938,840.584960938,842.229919434
1531743876.7421265,853.744812012,832.360046387,842.229919434,843.874938965
1531743876.7466753,852.09979248,835.650024414,838.940002441,834.0050048830001
1531743876.7512238,857.0347290039999,840.584960938,835.650024414,834.0050048830001
1531743876.7557724,857.0347290039999,835.650024414,840.584960938,837.29498291
1531743876.7603214,855.3897705080001,832.360046387,838.940002441,837.29498291
1531743876.7648695,855.3897705080001,837.29498291,840.584960938,837.29498291
1531743876.7694185,857.0347290039999,838.940002441,837.29498291,834.0050048830001
1531743876.773967,858.679748535,840.584960938,830.715087891,838.940002441
1531743876.7785153,858.679748535,842.229919434,837.29498291,842.229919434
1531743876.7830644,861.969726562,838.940002441,832.360046387,837.29498291
1531743876.7876127,858.679748535,842.229919434,830.715087891,838.940002441
1531743876.7921615,853.744812012,837.29498291,838.940002441,829.070068359
1531743876.7967105,853.744812012,835.650024414,835.650024414,834.0050048830001
1531743876.8012588,850.454833984,830.715087891,837.29498291,834.0050048830001
1531743876.8058074,857.0347290039999,840.584960938,835.650024414,840.584960938
1531743876.8103561,860.3247070310001,840.584960938,835.650024414,840.584960938
1531743876.8149047,868.549621582,842.229919434,842.229919434,845.519897461
1531743876.8194535,858.679748535,838.940002441,834.0050048830001,840.584960938
1531743876.824002,853.744812012,834.0050048830001,827.425109863,832.360046387
1531743876.8285508,855.3897705080001,840.584960938,824.135131836,832.360046387
1531743876.8330994,858.679748535,840.584960938,834.0050048830001,835.650024414
1531743876.8376482,858.679748535,838.940002441,840.584960938,832.360046387
1531743876.8421967,861.969726562,838.940002441,837.29498291,835.650024414
1531743876.8467453,873.484558105,842.229919434,834.0050048830001,838.940002441
1531743876.851294,873.484558105,843.874938965,835.650024414,845.519897461
1531743876.8558426,871.839599609,842.229919434,837.29498291,847.164855957
1531743876.8603914,873.484558105,847.164855957,838.940002441,845.519897461
1531743876.86494,866.904663086,842.229919434,834.0050048830001,835.650024414
1531743876.8694885,866.904663086,835.650024414,834.0050048830001,845.519897461
1531743876.8740373,866.904663086,838.940002441,837.29498291,852.09979248
1531743876.8785858,863.614685059,840.584960938,840.584960938,840.584960938
1531743876.8831346,858.679748535,832.360046387,840.584960938,847.164855957
1531743876.8876832,857.0347290039999,838.940002441,838.940002441,840.584960938
1531743876.8922315,863.614685059,840.584960938,834.0050048830001,837.29498291
1531743876.8967805,870.1945800780001,842.229919434,840.584960938,843.874938965
1531743876.9013288,865.259643555,838.940002441,843.874938965,842.229919434
1531743876.9058778,868.549621582,837.29498291,842.229919434,840.584960938
1531743876.9104266,861.969726562,834.0050048830001,842.229919434,840.584960938
1531743876.9149747,861.969726562,834.0050048830001,840.584960938,843.874938965
1531743876.9195235,868.549621582,840.584960938,842.229919434,840.584960938
1531743876.9240725,861.969726562,840.584960938,840.584960938,835.650024414
1531743876.9286213,868.549621582,843.874938965,843.874938965,842.229919434
1531743876.9331696,868.549621582,837.29498291,835.650024414,840.584960938
1531743876.9377182,858.679748535,825.7801513669999,832.360046387,842.229919434
1531743876.9422667,860.3247070310001,827.425109863,842.229919434,850.454833984
1531743876.9468155,857.0347290039999,827.425109863,843.874938965,843.874938965
1531743876.9513645,858.679748535,843.874938965,837.29498291,837.29498291
1531743876.9559126,865.259643555,843.874938965,837.29498291,843.874938965
1531743876.9604616,870.1945800780001,840.584960938,832.360046387,847.164855957
1531743876.9650102,865.259643555,832.360046387,838.940002441,845.519897461
1531743876.9695587,871.839599609,840.584960938,838.940002441,848.809875488
1531743876.9741075,868.549621582,837.29498291,842.229919434,850.454833984
1531743876.978656,861.969726562,847.164855957,834.0050048830001,845.519897461
1531743876.9832046,871.839599609,847.164855957,834.0050048830001,850.454833984
1531743876.9877536,863.614685059,840.584960938,837.29498291,847.164855957
1531743876.992302,861.969726562,834.0050048830001,837.29498291,845.519897461
1531743876.9968507,863.614685059,834.0050048830001,838.940002441,852.09979248
1531743877.0013993,865.259643555,838.940002441,832.360046387,850.454833984
1531743877.0059476,870.1945800780001,840.584960938,835.650024414,847.164855957
1531743877.0104964,863.614685059,845.519897461,848.809875488,843.874938965
1531743877.0150454,860.3247070310001,838.940002441,837.29498291,837.29498291
1531743877.019594,853.744812012,832.360046387,834.0050048830001,837.29498291
1531743877.0241425,863.614685059,840.584960938,835.650024414,834.0050048830001
1531743877.0286913,866.904663086,843.874938965,830.715087891,834.0050048830001
1531743877.0332398,863.614685059,845.519897461,837.29498291,842.229919434
1531743877.0377884,861.969726562,840.584960938,835.650024414,837.29498291
1531743877.0423374,857.0347290039999,835.650024414,832.360046387,840.584960938
1531743877.0468855,855.3897705080001,832.360046387,837.29498291,843.874938965
1531743877.0514345,860.3247070310001,837.29498291,842.229919434,848.809875488
1531743877.0559833,860.3247070310001,840.584960938,835.650024414,852.09979248
1531743877.0605314,855.3897705080001,832.360046387,835.650024414,850.454833984
1531743877.0650804,857.0347290039999,832.360046387,838.940002441,845.519897461
1531743877.069629,858.679748535,834.0050048830001,840.584960938,843.874938965
1531743877.0741775,855.3897705080001,835.650024414,837.29498291,845.519897461
1531743877.0787265,852.09979248,835.650024414,837.29498291,834.0050048830001
1531743877.0832748,852.09979248,840.584960938,835.650024414,829.070068359
1531743877.0878234,850.454833984,837.29498291,838.940002441,825.7801513669999
1531743877.0923722,850.454833984,834.0050048830001,838.940002441,819.200195312
1531743877.0969207,857.0347290039999,835.650024414,835.650024414,825.7801513669999
1531743877.1014695,855.3897705080001,837.29498291,837.29498291,830.715087891
1531743877.106018,858.679748535,840.584960938,838.940002441,835.650024414
1531743877.1105669,857.0347290039999,834.0050048830001,837.29498291,840.584960938
1531743877.1151154,855.3897705080001,840.584960938,840.584960938,843.874938965
1531743877.119664,858.679748535,838.940002441,834.0050048830001,838.940002441
1531743877.1242127,853.744812012,843.874938965,827.425109863,835.650024414
1531743877.1287613,857.0347290039999,843.874938965,829.070068359,832.360046387
1531743877.13331,852.09979248,838.940002441,832.360046387,829.070068359
1531743877.1378586,850.454833984,838.940002441,837.29498291,829.070068359
1531743877.1424072,855.3897705080001,843.874938965,838.940002441,835.650024414
1531743877.146956,855.3897705080001,838.940002441,840.584960938,838.940002441
1531743877.1515045,857.0347290039999,840.584960938,834.0050048830001,840.584960938
1531743877.1560533,858.679748535,838.940002441,837.29498291,837.29498291
1531743877.1606019,861.969726562,845.519897461,835.650024414,835.650024414
1531743877.1651506,858.679748535,845.519897461,827.425109863,838.940002441
1531743877.1696992,858.679748535,842.229919434,830.715087891,838.940002441
1531743877.1742475,857.0347290039999,843.874938965,835.650024414,837.29498291
1531743877.1787965,855.3897705080001,845.519897461,843.874938965,837.29498291
1531743877.1833453,857.0347290039999,835.650024414,840.584960938,840.584960938
1531743877.1878936,855.3897705080001,842.229919434,840.584960938,842.229919434
1531743877.1924427,858.679748535,842.229919434,838.940002441,842.229919434
1531743877.196991,858.679748535,840.584960938,835.650024414,835.650024414
1531743877.2015398,866.904663086,842.229919434,837.29498291,837.29498291
1531743877.2060885,866.904663086,845.519897461,829.070068359,845.519897461
1531743877.2106366,858.679748535,842.229919434,835.650024414,842.229919434
1531743877.2151856,850.454833984,837.29498291,832.360046387,838.940002441
1531743877.2197342,852.09979248,832.360046387,845.519897461,837.29498291
1531743877.224283,847.164855957,827.425109863,855.3897705080001,835.650024414
1531743877.2288315,850.454833984,827.425109863,868.549621582,835.650024414
1531743877.23338,845.519897461,829.070068359,871.839599609,834.0050048830001
1531743877.2379286,835.650024414,820.8452148439999,861.969726562,832.360046387
1531743877.2424777,830.715087891,815.91027832,845.519897461,838.940002441
1531743877.2470262,819.200195312,809.330322266,871.839599609,834.0050048830001
1531743877.2515748,819.200195312,804.3953857419999,896.514282227,829.070068359
1531743877.2561233,827.425109863,809.330322266,894.86932373,830.715087891
1531743877.260672,830.715087891,807.68536377,886.64440918,834.0050048830001
1531743877.2652204,842.229919434,810.975280762,870.1945800780001,837.29498291
1531743877.2697694,842.229919434,814.265258789,865.259643555,842.229919434
1531743877.274318,845.519897461,815.91027832,870.1945800780001,845.519897461
1531743877.2788663,848.809875488,819.200195312,866.904663086,847.164855957
1531743877.2834153,840.584960938,822.49017334,852.09979248,848.809875488
1531743877.287964,837.29498291,817.555236816,875.129516602,840.584960938
1531743877.2925127,847.164855957,815.91027832,883.354431152,838.940002441
1531743877.2970614,847.164855957,817.555236816,873.484558105,842.229919434
1531743877.3016098,850.454833984,820.8452148439999,866.904663086,843.874938965
1531743877.3061585,848.809875488,819.200195312,857.0347290039999,843.874938965
1531743877.3107073,847.164855957,822.49017334,861.969726562,843.874938965
1531743877.315256,843.874938965,824.135131836,855.3897705080001,838.940002441
1531743877.3198044,845.519897461,827.425109863,857.0347290039999,842.229919434
1531743877.324353,837.29498291,824.135131836,850.454833984,832.360046387
1531743877.3289018,840.584960938,820.8452148439999,855.3897705080001,829.070068359
1531743877.3334506,848.809875488,820.8452148439999,857.0347290039999,834.0050048830001
1531743877.337999,847.164855957,824.135131836,853.744812012,835.650024414
1531743877.3425474,853.744812012,834.0050048830001,855.3897705080001,837.29498291
1531743877.3470962,855.3897705080001,834.0050048830001,852.09979248,842.229919434
1531743877.351645,853.744812012,830.715087891,852.09979248,840.584960938
1531743877.3561935,855.3897705080001,827.425109863,857.0347290039999,843.874938965
1531743877.3607426,855.3897705080001,825.7801513669999,847.164855957,838.940002441
1531743877.3652909,855.3897705080001,829.070068359,847.164855957,834.0050048830001
1531743877.3698394,855.3897705080001,827.425109863,852.09979248,835.650024414
1531743877.3743882,850.454833984,830.715087891,843.874938965,834.0050048830001
1531743877.3789368,847.164855957,832.360046387,852.09979248,838.940002441
1531743877.3834856,842.229919434,829.070068359,858.679748535,830.715087891
1531743877.3880339,848.809875488,830.715087891,848.809875488,829.070068359
1531743877.392583,848.809875488,827.425109863,843.874938965,835.650024414
1531743877.3971314,852.09979248,830.715087891,852.09979248,843.874938965
1531743877.40168,852.09979248,834.0050048830001,845.519897461,848.809875488
1531743877.4062288,853.744812012,830.715087891,852.09979248,840.584960938
1531743877.4107773,852.09979248,832.360046387,852.09979248,835.650024414
1531743877.4153259,848.809875488,834.0050048830001,848.809875488,838.940002441
1531743877.419875,850.454833984,842.229919434,848.809875488,842.229919434
1531743877.4244232,852.09979248,837.29498291,850.454833984,847.164855957
1531743877.428972,852.09979248,837.29498291,845.519897461,834.0050048830001
1531743877.4335206,848.809875488,830.715087891,853.744812012,829.070068359
1531743877.4380693,850.454833984,832.360046387,850.454833984,832.360046387
1531743877.442618,852.09979248,838.940002441,852.09979248,837.29498291
1531743877.4471664,852.09979248,835.650024414,852.09979248,843.874938965
1531743877.4517152,853.744812012,835.650024414,853.744812012,842.229919434
1531743877.4562638,855.3897705080001,832.360046387,842.229919434,835.650024414
1531743877.4608126,857.0347290039999,840.584960938,843.874938965,832.360046387
1531743877.4653614,855.3897705080001,843.874938965,848.809875488,834.0050048830001
1531743877.4699097,858.679748535,837.29498291,843.874938965,837.29498291
1531743877.4744587,855.3897705080001,838.940002441,847.164855957,834.0050048830001
1531743877.479007,858.679748535,843.874938965,840.584960938,832.360046387
1531743877.4835556,865.259643555,838.940002441,843.874938965,835.650024414
1531743877.4881046,860.3247070310001,837.29498291,845.519897461,834.0050048830001
1531743877.4926527,852.09979248,834.0050048830001,845.519897461,838.940002441
1531743877.4972017,852.09979248,832.360046387,842.229919434,842.229919434
1531743877.5017502,853.744812012,838.940002441,840.584960938,835.650024414
1531743877.5062988,853.744812012,842.229919434,847.164855957,842.229919434
1531743877.5108476,855.3897705080001,837.29498291,840.584960938,838.940002441
1531743877.515396,852.09979248,838.940002441,832.360046387,837.29498291
1531743877.5199447,857.0347290039999,837.29498291,837.29498291,837.29498291
1531743877.5244935,860.3247070310001,838.940002441,834.0050048830001,827.425109863
1531743877.529042,858.679748535,834.0050048830001,842.229919434,834.0050048830001
1531743877.5335908,857.0347290039999,834.0050048830001,838.940002441,834.0050048830001
1531743877.5381393,853.744812012,834.0050048830001,837.29498291,832.360046387
1531743877.5426881,857.0347290039999,832.360046387,842.229919434,838.940002441
1531743877.5472367,863.614685059,838.940002441,843.874938965,845.519897461
1531743877.5517852,863.614685059,835.650024414,838.940002441,838.940002441
1531743877.556334,850.454833984,832.360046387,838.940002441,835.650024414
1531743877.5608823,855.3897705080001,835.650024414,847.164855957,842.229919434
1531743877.5654314,853.744812012,835.650024414,842.229919434,838.940002441
1531743877.5699801,857.0347290039999,838.940002441,840.584960938,840.584960938
1531743877.5745285,861.969726562,843.874938965,845.519897461,848.809875488
1531743877.5790772,857.0347290039999,843.874938965,842.229919434,842.229919434
1531743877.5836258,855.3897705080001,840.584960938,838.940002441,834.0050048830001
1531743877.5881743,861.969726562,842.229919434,843.874938965,835.650024414
1531743877.5927231,858.679748535,843.874938965,840.584960938,830.715087891
1531743877.5972714,865.259643555,837.29498291,837.29498291,830.715087891
1531743877.6018205,866.904663086,838.940002441,843.874938965,830.715087891
1531743877.606369,865.259643555,842.229919434,835.650024414,827.425109863
1531743877.6109178,865.259643555,834.0050048830001,834.0050048830001,824.135131836
1531743877.6154664,858.679748535,835.650024414,843.874938965,817.555236816
1531743877.620015,853.744812012,840.584960938,843.874938965,832.360046387
1531743877.6245635,847.164855957,843.874938965,838.940002441,834.0050048830001
1531743877.6291122,842.229919434,842.229919434,837.29498291,835.650024414
1531743877.633661,837.29498291,834.0050048830001,838.940002441,834.0050048830001
1531743877.6382096,842.229919434,835.650024414,837.29498291,832.360046387
1531743877.642758,848.809875488,840.584960938,845.519897461,834.0050048830001
1531743877.647307,848.809875488,842.229919434,847.164855957,834.0050048830001
1531743877.6518555,848.809875488,834.0050048830001,840.584960938,829.070068359
1531743877.6564045,852.09979248,838.940002441,847.164855957,830.715087891
1531743877.6609528,848.809875488,835.650024414,842.229919434,837.29498291
1531743877.6655016,848.809875488,838.940002441,840.584960938,837.29498291
1531743877.67005,850.454833984,838.940002441,842.229919434,842.229919434
1531743877.674599,847.164855957,834.0050048830001,842.229919434,837.29498291
1531743877.6791475,847.164855957,840.584960938,835.650024414,842.229919434
1531743877.683696,850.454833984,842.229919434,845.519897461,834.0050048830001
1531743877.6882446,847.164855957,838.940002441,847.164855957,814.265258789
1531743877.6927936,835.650024414,837.29498291,845.519897461,820.8452148439999
1531743877.697342,843.874938965,835.650024414,842.229919434,822.49017334
1531743877.7018907,843.874938965,837.29498291,838.940002441,838.940002441
1531743877.7064393,852.09979248,838.940002441,842.229919434,845.519897461
1531743877.7109878,853.744812012,837.29498291,848.809875488,842.229919434
1531743877.7155366,860.3247070310001,842.229919434,850.454833984,848.809875488
1531743877.7200851,852.09979248,835.650024414,845.519897461,843.874938965
1531743877.724634,855.3897705080001,834.0050048830001,843.874938965,850.454833984
1531743877.7291825,860.3247070310001,835.650024414,847.164855957,853.744812012
1531743877.733731,857.0347290039999,830.715087891,835.650024414,843.874938965
1531743877.7382796,852.09979248,835.650024414,838.940002441,838.940002441
1531743877.7428286,850.454833984,834.0050048830001,837.29498291,832.360046387
1531743877.7473774,853.744812012,835.650024414,827.425109863,830.715087891
1531743877.7519255,852.09979248,838.940002441,840.584960938,840.584960938
1531743877.7564745,850.454833984,838.940002441,840.584960938,835.650024414
1531743877.761023,847.164855957,837.29498291,845.519897461,835.650024414
1531743877.7655716,842.229919434,834.0050048830001,852.09979248,829.070068359
1531743877.7701206,843.874938965,835.650024414,847.164855957,835.650024414
1531743877.7746687,855.3897705080001,837.29498291,842.229919434,830.715087891
1531743877.7792175,857.0347290039999,838.940002441,837.29498291,830.715087891
1531743877.7837665,848.809875488,832.360046387,835.650024414,827.425109863
1531743877.7883148,845.519897461,832.360046387,840.584960938,829.070068359
1531743877.7928634,850.454833984,834.0050048830001,843.874938965,832.360046387
1531743877.7974124,852.09979248,835.650024414,847.164855957,837.29498291
1531743877.8019607,852.09979248,837.29498291,847.164855957,834.0050048830001
1531743877.8065095,850.454833984,837.29498291,842.229919434,832.360046387
1531743877.811058,847.164855957,834.0050048830001,834.0050048830001,827.425109863
1531743877.8156068,850.454833984,835.650024414,830.715087891,835.650024414
1531743877.8201554,857.0347290039999,837.29498291,835.650024414,842.229919434
1531743877.824704,853.744812012,837.29498291,830.715087891,840.584960938
1531743877.8292527,845.519897461,834.0050048830001,827.425109863,834.0050048830001
1531743877.8338013,848.809875488,835.650024414,820.8452148439999,824.135131836
1531743877.83835,852.09979248,834.0050048830001,834.0050048830001,824.135131836
1531743877.8428984,847.164855957,834.0050048830001,838.940002441,819.200195312
1531743877.8474472,837.29498291,830.715087891,845.519897461,827.425109863
1531743877.8519962,840.584960938,834.0050048830001,843.874938965,830.715087891
1531743877.8565445,840.584960938,835.650024414,835.650024414,837.29498291
1531743877.8610933,842.229919434,827.425109863,840.584960938,837.29498291
1531743877.8656418,838.940002441,830.715087891,845.519897461,830.715087891
1531743877.8701904,842.229919434,830.715087891,843.874938965,835.650024414
1531743877.8747392,838.940002441,827.425109863,837.29498291,830.715087891
1531743877.8792875,845.519897461,827.425109863,834.0050048830001,829.070068359
1531743877.8838365,848.809875488,832.360046387,835.650024414,835.650024414
1531743877.888385,845.519897461,829.070068359,832.360046387,827.425109863
1531743877.8929336,850.454833984,838.940002441,842.229919434,837.29498291
1531743877.8974824,850.454833984,840.584960938,835.650024414,835.650024414
1531743877.9020307,852.09979248,837.29498291,837.29498291,835.650024414
1531743877.9065795,858.679748535,835.650024414,838.940002441,842.229919434
1531743877.9111285,865.259643555,835.650024414,832.360046387,837.29498291
1531743877.9156768,857.0347290039999,835.650024414,838.940002441,825.7801513669999
1531743877.9202256,855.3897705080001,837.29498291,830.715087891,827.425109863
1531743877.9247742,860.3247070310001,837.29498291,830.715087891,827.425109863
1531743877.929323,863.614685059,840.584960938,837.29498291,837.29498291
1531743877.9338715,868.549621582,842.229919434,838.940002441,842.229919434
1531743877.9384198,868.549621582,842.229919434,842.229919434,845.519897461
1531743877.9429688,857.0347290039999,834.0050048830001,843.874938965,843.874938965
1531743877.9475176,858.679748535,829.070068359,842.229919434,842.229919434
1531743877.9520662,865.259643555,830.715087891,837.29498291,847.164855957
1531743877.9566147,860.3247070310001,834.0050048830001,835.650024414,838.940002441
1531743877.9611633,857.0347290039999,835.650024414,838.940002441,840.584960938
1531743877.9657118,853.744812012,837.29498291,843.874938965,842.229919434
1531743877.9702606,850.454833984,834.0050048830001,843.874938965,838.940002441
1531743877.9748096,853.744812012,834.0050048830001,838.940002441,835.650024414
1531743877.979358,865.259643555,838.940002441,832.360046387,838.940002441
1531743877.9839065,863.614685059,834.0050048830001,829.070068359,837.29498291
1531743877.9884553,863.614685059,840.584960938,834.0050048830001,838.940002441
1531743877.9930036,865.259643555,840.584960938,842.229919434,842.229919434
1531743877.9975526,857.0347290039999,838.940002441,837.29498291,847.164855957
1531743878.0021012,857.0347290039999,837.29498291,837.29498291,842.229919434
1531743878.0066495,857.0347290039999,840.584960938,837.29498291,835.650024414
1531743878.0111985,850.454833984,837.29498291,834.0050048830001,835.650024414
1531743878.0157473,847.164855957,835.650024414,838.940002441,832.360046387
1531743878.020296,858.679748535,837.29498291,832.360046387,840.584960938
1531743878.0248446,853.744812012,835.650024414,827.425109863,835.650024414
1531743878.029393,858.679748535,847.164855957,830.715087891,835.650024414
1531743878.0339415,860.3247070310001,845.519897461,830.715087891,838.940002441
1531743878.0384905,858.679748535,840.584960938,835.650024414,834.0050048830001
1531743878.0430393,860.3247070310001,845.519897461,838.940002441,842.229919434
1531743878.0475874,855.3897705080001,842.229919434,848.809875488,837.29498291
1531743878.0521364,858.679748535,847.164855957,845.519897461,837.29498291
1531743878.056685,855.3897705080001,847.164855957,842.229919434,838.940002441
1531743878.0612335,858.679748535,848.809875488,837.29498291,835.650024414
1531743878.0657823,857.0347290039999,838.940002441,837.29498291,835.650024414
1531743878.0703306,852.09979248,845.519897461,837.29498291,829.070068359
1531743878.0748794,855.3897705080001,845.519897461,835.650024414,825.7801513669999
1531743878.0794284,860.3247070310001,840.584960938,832.360046387,838.940002441
1531743878.0839767,860.3247070310001,845.519897461,838.940002441,834.0050048830001
1531743878.0885255,857.0347290039999,843.874938965,840.584960938,827.425109863
1531743878.093074,850.454833984,842.229919434,835.650024414,825.7801513669999
1531743878.0976224,843.874938965,842.229919434,820.8452148439999,817.555236816
1531743878.1021714,843.874938965,845.519897461,830.715087891,819.200195312
1531743878.10672,847.164855957,845.519897461,834.0050048830001,825.7801513669999
1531743878.1112688,848.809875488,850.454833984,840.584960938,817.555236816
1531743878.115817,853.744812012,845.519897461,838.940002441,815.91027832
1531743878.120366,845.519897461,845.519897461,832.360046387,814.265258789
1531743878.1249144,850.454833984,847.164855957,827.425109863,820.8452148439999
1531743878.1294632,850.454833984,840.584960938,832.360046387,817.555236816
1531743878.1340115,850.454833984,843.874938965,835.650024414,824.135131836
1531743878.1385605,857.0347290039999,840.584960938,837.29498291,827.425109863
1531743878.143109,852.09979248,842.229919434,835.650024414,824.135131836
1531743878.147658,850.454833984,840.584960938,832.360046387,829.070068359
1531743878.1522064,848.809875488,837.29498291,834.0050048830001,829.070068359
1531743878.156755,855.3897705080001,840.584960938,835.650024414,838.940002441
1531743878.1613038,853.744812012,830.715087891,840.584960938,838.940002441
1531743878.1658525,861.969726562,845.519897461,838.940002441,838.940002441
1531743878.170401,861.969726562,845.519897461,830.715087891,832.360046387
1531743878.1749494,858.679748535,842.229919434,835.650024414,832.360046387
1531743878.1794982,861.969726562,848.809875488,834.0050048830001,834.0050048830001
1531743878.184047,860.3247070310001,840.584960938,835.650024414,840.584960938
1531743878.1885955,855.3897705080001,840.584960938,827.425109863,829.070068359
1531743878.1931446,855.3897705080001,840.584960938,830.715087891,832.360046387
1531743878.1976929,852.09979248,835.650024414,834.0050048830001,837.29498291
1531743878.2022414,847.164855957,835.650024414,832.360046387,832.360046387
1531743878.2067902,848.809875488,834.0050048830001,837.29498291,834.0050048830001
1531743878.2113388,842.229919434,837.29498291,832.360046387,829.070068359
1531743878.2158875,843.874938965,840.584960938,827.425109863,829.070068359
1531743878.2204359,843.874938965,838.940002441,837.29498291,830.715087891
1531743878.2249846,848.809875488,835.650024414,837.29498291,832.360046387
1531743878.2295337,848.809875488,837.29498291,834.0050048830001,825.7801513669999
1531743878.234082,847.164855957,837.29498291,837.29498291,832.360046387
1531743878.2386308,850.454833984,838.940002441,830.715087891,837.29498291
1531743878.2431793,850.454833984,837.29498291,825.7801513669999,838.940002441
1531743878.2477279,855.3897705080001,840.584960938,835.650024414,842.229919434
1531743878.2522767,853.744812012,835.650024414,845.519897461,838.940002441
1531743878.2568252,848.809875488,838.940002441,834.0050048830001,835.650024414
1531743878.261374,850.454833984,840.584960938,838.940002441,834.0050048830001
1531743878.2659225,847.164855957,838.940002441,837.29498291,830.715087891
1531743878.2704713,852.09979248,838.940002441,837.29498291,838.940002441
1531743878.27502,843.874938965,830.715087891,842.229919434,837.29498291
1531743878.2795687,850.454833984,842.229919434,838.940002441,835.650024414
1531743878.2841172,847.164855957,835.650024414,830.715087891,830.715087891
1531743878.2886658,852.09979248,838.940002441,838.940002441,835.650024414
1531743878.2932146,857.0347290039999,835.650024414,840.584960938,830.715087891
1531743878.2977633,852.09979248,832.360046387,840.584960938,832.360046387
1531743878.3023114,850.454833984,835.650024414,837.29498291,832.360046387
1531743878.3068604,843.874938965,837.29498291,829.070068359,834.0050048830001
1531743878.311409,843.874938965,837.29498291,830.715087891,834.0050048830001
1531743878.3159573,850.454833984,840.584960938,835.650024414,832.360046387
1531743878.3205063,843.874938965,834.0050048830001,843.874938965,832.360046387
1531743878.3250546,838.940002441,834.0050048830001,848.809875488,827.425109863
1531743878.3296034,843.874938965,837.29498291,843.874938965,832.360046387
1531743878.3341525,840.584960938,834.0050048830001,843.874938965,830.715087891
1531743878.3387008,843.874938965,837.29498291,835.650024414,819.200195312
1531743878.3432493,842.229919434,840.584960938,837.29498291,825.7801513669999
1531743878.347798,842.229919434,838.940002441,842.229919434,825.7801513669999
1531743878.3523467,845.519897461,838.940002441,838.940002441,827.425109863
1531743878.3568954,847.164855957,837.29498291,838.940002441,827.425109863
1531743878.361444,843.874938965,834.0050048830001,837.29498291,829.070068359
1531743878.3659928,842.229919434,834.0050048830001,829.070068359,829.070068359
1531743878.370541,840.584960938,840.584960938,835.650024414,825.7801513669999
1531743878.3750901,840.584960938,842.229919434,842.229919434,827.425109863
1531743878.3796387,842.229919434,838.940002441,840.584960938,827.425109863
1531743878.3841872,842.229919434,838.940002441,838.940002441,834.0050048830001
1531743878.388736,842.229919434,835.650024414,843.874938965,837.29498291
1531743878.3932846,848.809875488,835.650024414,840.584960938,830.715087891
1531743878.397833,840.584960938,834.0050048830001,842.229919434,830.715087891
1531743878.4023821,840.584960938,830.715087891,837.29498291,829.070068359
1531743878.4069304,850.454833984,837.29498291,834.0050048830001,824.135131836
1531743878.4114792,848.809875488,832.360046387,837.29498291,827.425109863
1531743878.4160278,847.164855957,835.650024414,835.650024414,829.070068359
1531743878.4205766,848.809875488,837.29498291,822.49017334,827.425109863
1531743878.4251251,853.744812012,834.0050048830001,832.360046387,830.715087891
1531743878.4296734,850.454833984,834.0050048830001,845.519897461,825.7801513669999
1531743878.4342225,843.874938965,834.0050048830001,842.229919434,824.135131836
1531743878.438771,835.650024414,829.070068359,850.454833984,830.715087891
1531743878.4433198,847.164855957,835.650024414,825.7801513669999,830.715087891
1531743878.4478686,845.519897461,845.519897461,830.715087891,825.7801513669999
1531743878.452417,848.809875488,843.874938965,845.519897461,825.7801513669999
1531743878.4569654,848.809875488,838.940002441,832.360046387,834.0050048830001
1531743878.4615142,847.164855957,832.360046387,834.0050048830001,838.940002441
1531743878.466063,865.259643555,837.29498291,824.135131836,845.519897461
1531743878.4706116,863.614685059,842.229919434,830.715087891,848.809875488
1531743878.47516,852.09979248,842.229919434,843.874938965,845.519897461
1531743878.4797087,850.454833984,840.584960938,842.229919434,847.164855957
1531743878.4842575,852.09979248,834.0050048830001,843.874938965,832.360046387
1531743878.4888062,845.519897461,830.715087891,840.584960938,824.135131836
1531743878.4933548,852.09979248,837.29498291,838.940002441,834.0050048830001
1531743878.4979033,852.09979248,834.0050048830001,827.425109863,824.135131836
1531743878.502452,853.744812012,835.650024414,832.360046387,829.070068359
1531743878.5070007,853.744812012,840.584960938,840.584960938,830.715087891
1531743878.5115495,850.454833984,838.940002441,842.229919434,832.360046387
1531743878.516098,850.454833984,845.519897461,843.874938965,837.29498291
1531743878.5206466,848.809875488,838.940002441,845.519897461,829.070068359
1531743878.5251956,842.229919434,838.940002441,838.940002441,824.135131836
1531743878.529744,838.940002441,837.29498291,838.940002441,825.7801513669999
1531743878.5342927,845.519897461,834.0050048830001,834.0050048830001,830.715087891
1531743878.5388412,848.809875488,837.29498291,830.715087891,830.715087891
1531743878.5433898,857.0347290039999,838.940002441,840.584960938,827.425109863
1531743878.5479386,860.3247070310001,840.584960938,838.940002441,825.7801513669999
1531743878.5524874,866.904663086,840.584960938,840.584960938,834.0050048830001
1531743878.557036,871.839599609,842.229919434,832.360046387,830.715087891
1531743878.5615845,870.1945800780001,838.940002441,838.940002441,822.49017334
1531743878.566133,875.129516602,843.874938965,845.519897461,824.135131836
1531743878.5706818,868.549621582,848.809875488,837.29498291,825.7801513669999
1531743878.5752304,857.0347290039999,842.229919434,834.0050048830001,834.0050048830001
1531743878.5797794,848.809875488,842.229919434,830.715087891,827.425109863
1531743878.5843275,840.584960938,842.229919434,830.715087891,835.650024414
1531743878.5888762,840.584960938,835.650024414,830.715087891,830.715087891
1531743878.593425,853.744812012,837.29498291,848.809875488,830.715087891
1531743878.5979733,852.09979248,838.940002441,848.809875488,832.360046387
1531743878.6025224,853.744812012,838.940002441,843.874938965,834.0050048830001
1531743878.6070707,845.519897461,845.519897461,847.164855957,837.29498291
1531743878.6116195,847.164855957,843.874938965,838.940002441,835.650024414
1531743878.6161685,838.940002441,832.360046387,834.0050048830001,834.0050048830001
1531743878.6207168,840.584960938,834.0050048830001,835.650024414,834.0050048830001
1531743878.6252654,842.229919434,834.0050048830001,834.0050048830001,830.715087891
1531743878.6298141,842.229919434,837.29498291,837.29498291,838.940002441
1531743878.6343627,842.229919434,838.940002441,842.229919434,842.229919434
1531743878.6389115,845.519897461,835.650024414,845.519897461,842.229919434
1531743878.64346,850.454833984,837.29498291,840.584960938,842.229919434
1531743878.6480088,853.744812012,837.29498291,847.164855957,845.519897461
1531743878.6525574,848.809875488,837.29498291,842.229919434,838.940002441
1531743878.6571062,852.09979248,837.29498291,830.715087891,840.584960938
1531743878.6616547,855.3897705080001,835.650024414,834.0050048830001,835.650024414
1531743878.6662033,853.744812012,840.584960938,832.360046387,837.29498291
1531743878.670752,858.679748535,840.584960938,843.874938965,835.650024414
1531743878.6753006,855.3897705080001,842.229919434,838.940002441,829.070068359
1531743878.6798491,852.09979248,840.584960938,834.0050048830001,830.715087891
1531743878.684398,853.744812012,835.650024414,829.070068359,829.070068359
1531743878.6889465,848.809875488,837.29498291,824.135131836,832.360046387
1531743878.6934953,843.874938965,838.940002441,834.0050048830001,834.0050048830001
1531743878.6980438,838.940002441,837.29498291,829.070068359,829.070068359
1531743878.7025926,837.29498291,835.650024414,835.650024414,819.200195312
1531743878.7071412,842.229919434,837.29498291,847.164855957,832.360046387
1531743878.7116895,842.229919434,830.715087891,842.229919434,832.360046387
1531743878.7162385,840.584960938,832.360046387,847.164855957,842.229919434
1531743878.7207868,847.164855957,834.0050048830001,830.715087891,850.454833984
1531743878.7253356,848.809875488,829.070068359,829.070068359,842.229919434
1531743878.7298846,847.164855957,832.360046387,834.0050048830001,850.454833984
1531743878.7344327,843.874938965,825.7801513669999,837.29498291,838.940002441
1531743878.7389815,838.940002441,832.360046387,834.0050048830001,837.29498291
1531743878.7435305,840.584960938,837.29498291,834.0050048830001,835.650024414
1531743878.7480788,845.519897461,835.650024414,840.584960938,835.650024414
1531743878.7526276,852.09979248,832.360046387,838.940002441,827.425109863
1531743878.7571762,852.09979248,837.29498291,843.874938965,832.360046387
1531743878.7617247,853.744812012,835.650024414,837.29498291,830.715087891
1531743878.7662735,861.969726562,835.650024414,835.650024414,834.0050048830001
1531743878.770822,863.614685059,838.940002441,837.29498291,842.229919434
1531743878.7753706,858.679748535,837.29498291,835.650024414,835.650024414
1531743878.7799196,860.3247070310001,837.29498291,834.0050048830001,832.360046387
1531743878.7844682,850.454833984,835.650024414,837.29498291,832.360046387
1531743878.7890167,852.09979248,834.0050048830001,832.360046387,822.49017334
1531743878.7935653,850.454833984,835.650024414,834.0050048830001,829.070068359
1531743878.798114,850.454833984,840.584960938,842.229919434,832.360046387
1531743878.8026626,848.809875488,835.650024414,830.715087891,832.360046387
1531743878.8072116,850.454833984,834.0050048830001,834.0050048830001,837.29498291
1531743878.81176,853.744812012,834.0050048830001,840.584960938,835.650024414
1531743878.8163085,855.3897705080001,834.0050048830001,834.0050048830001,834.0050048830001
1531743878.8208573,848.809875488,840.584960938,842.229919434,837.29498291
1531743878.8254056,852.09979248,837.29498291,837.29498291,830.715087891
1531743878.8299544,852.09979248,834.0050048830001,834.0050048830001,835.650024414
1531743878.8345034,853.744812012,837.29498291,830.715087891,835.650024414
1531743878.8390515,857.0347290039999,834.0050048830001,835.650024414,840.584960938
1531743878.8436005,855.3897705080001,829.070068359,837.29498291,840.584960938
1531743878.8481493,860.3247070310001,834.0050048830001,838.940002441,842.229919434
1531743878.8526976,861.969726562,834.0050048830001,837.29498291,838.940002441
1531743878.8572464,857.0347290039999,832.360046387,838.940002441,843.874938965
1531743878.8617947,858.679748535,834.0050048830001,837.29498291,848.809875488
1531743878.8663435,863.614685059,835.650024414,840.584960938,842.229919434
1531743878.8708925,861.969726562,834.0050048830001,845.519897461,842.229919434
1531743878.8754413,863.614685059,832.360046387,845.519897461,842.229919434
1531743878.8799894,860.3247070310001,835.650024414,838.940002441,840.584960938
1531743878.8845382,858.679748535,837.29498291,843.874938965,835.650024414
1531743878.889087,855.3897705080001,832.360046387,842.229919434,837.29498291
1531743878.8936355,855.3897705080001,834.0050048830001,834.0050048830001,840.584960938
1531743878.8981845,853.744812012,834.0050048830001,834.0050048830001,842.229919434
1531743878.9027328,858.679748535,835.650024414,835.650024414,847.164855957
1531743878.9072814,860.3247070310001,840.584960938,829.070068359,842.229919434
1531743878.9118302,853.744812012,838.940002441,832.360046387,838.940002441
1531743878.9163787,855.3897705080001,835.650024414,843.874938965,842.229919434
1531743878.9209275,860.3247070310001,835.650024414,838.940002441,843.874938965
1531743878.925476,858.679748535,838.940002441,838.940002441,843.874938965
1531743878.9300244,858.679748535,837.29498291,837.29498291,842.229919434
1531743878.9345734,853.744812012,838.940002441,834.0050048830001,845.519897461
1531743878.939122,853.744812012,840.584960938,837.29498291,840.584960938
1531743878.9436707,857.0347290039999,835.650024414,838.940002441,843.874938965
1531743878.9482193,852.09979248,832.360046387,834.0050048830001,837.29498291
1531743878.9527678,853.744812012,835.650024414,837.29498291,842.229919434
1531743878.9573164,848.809875488,830.715087891,843.874938965,852.09979248
1531743878.9618652,852.09979248,835.650024414,840.584960938,838.940002441
1531743878.966414,857.0347290039999,832.360046387,838.940002441,842.229919434
1531743878.9709625,857.0347290039999,835.650024414,834.0050048830001,840.584960938
1531743878.9755113,860.3247070310001,838.940002441,837.29498291,837.29498291
1531743878.9800599,860.3247070310001,842.229919434,834.0050048830001,847.164855957
1531743878.9846087,858.679748535,837.29498291,834.0050048830001,847.164855957
1531743878.9891572,860.3247070310001,835.650024414,842.229919434,842.229919434
1531743878.9937055,858.679748535,840.584960938,842.229919434,847.164855957
1531743878.9982545,861.969726562,837.29498291,842.229919434,848.809875488
1531743879.0028033,865.259643555,840.584960938,840.584960938,847.164855957
1531743879.0073516,870.1945800780001,843.874938965,835.650024414,843.874938965
1531743879.0119007,866.904663086,842.229919434,835.650024414,840.584960938
1531743879.016449,865.259643555,835.650024414,834.0050048830001,840.584960938
1531743879.0209975,865.259643555,835.650024414,837.29498291,845.519897461
1531743879.0255466,858.679748535,837.29498291,838.940002441,843.874938965
1531743879.0300946,860.3247070310001,837.29498291,838.940002441,840.584960938
1531743879.0346437,857.0347290039999,837.29498291,838.940002441,832.360046387
1531743879.0391922,857.0347290039999,834.0050048830001,834.0050048830001,832.360046387
1531743879.0437407,860.3247070310001,835.650024414,832.360046387,837.29498291
1531743879.0482895,865.259643555,842.229919434,832.360046387,842.229919434
1531743879.052838,863.614685059,842.229919434,840.584960938,845.519897461
1531743879.0573866,858.679748535,838.940002441,838.940002441,843.874938965
1531743879.0619357,855.3897705080001,838.940002441,842.229919434,838.940002441
1531743879.066484,850.454833984,838.940002441,840.584960938,840.584960938
1531743879.0710328,852.09979248,837.29498291,837.29498291,837.29498291
1531743879.0755813,835.650024414,842.229919434,840.584960938,815.91027832
1531743879.08013,810.975280762,842.229919434,838.940002441,801.105407715
1531743879.0846784,783.0106201169999,842.229919434,840.584960938,781.3656616210001
1531743879.0892274,748.4660644530001,845.519897461,837.29498291,748.4660644530001
1531743879.093776,733.6612548830001,847.164855957,834.0050048830001,733.6612548830001
1531743879.0983243,707.341552734,848.809875488,834.0050048830001,699.116638184
1531743879.1028733,679.37689209,853.744812012,837.29498291,671.151977539
1531743879.107422,659.637145996,853.744812012,837.29498291,651.412231445
1531743879.1119704,638.252380371,852.09979248,843.874938965,628.382507324
1531743879.1165195,616.867614746,860.3247070310001,845.519897461,598.772827148
1531743879.1210678,597.127868652,865.259643555,845.519897461,577.3881225590001
1531743879.1256163,580.678039551,865.259643555,848.809875488,564.2282714840001
1531743879.1301653,565.87322998,870.1945800780001,850.454833984,556.0033569340001
1531743879.1347134,562.5832519530001,875.129516602,850.454833984,546.133483887
1531743879.1392624,554.358398438,878.4194946289999,850.454833984,537.908569336
1531743879.143811,554.358398438,881.7094726560001,848.809875488,532.973632812
1531743879.1483598,552.713378906,884.999450684,845.519897461,532.973632812
1531743879.1529086,547.7784423830001,884.999450684,850.454833984,528.038696289
1531743879.1574569,552.713378906,883.354431152,857.0347290039999,539.553527832
1531743879.1620054,544.488464355,880.064453125,861.969726562,541.198547363
1531743879.1665542,557.64831543,881.7094726560001,861.969726562,544.488464355
1531743879.171103,567.518188477,886.64440918,855.3897705080001,559.293334961
1531743879.1756516,579.033081055,889.934387207,850.454833984,556.0033569340001
1531743879.1802,588.902954102,894.86932373,855.3897705080001,572.453186035
1531743879.184749,590.547912598,891.5793457030001,853.744812012,572.453186035
1531743879.1892974,598.772827148,893.2243041989999,850.454833984,577.3881225590001
1531743879.1938462,600.41784668,893.2243041989999,850.454833984,579.033081055
1531743879.1983948,613.577697754,894.86932373,848.809875488,583.9680175780001
1531743879.202943,616.867614746,891.5793457030001,853.744812012,597.127868652
1531743879.2074919,621.80255127,889.934387207,855.3897705080001,600.41784668
1531743879.212041,633.317443848,893.2243041989999,855.3897705080001,616.867614746
1531743879.2165895,643.187316895,893.2243041989999,855.3897705080001,625.0925292969999
1531743879.221138,646.4772949219999,894.86932373,853.744812012,628.382507324
1531743879.2256866,651.412231445,891.5793457030001,855.3897705080001,638.252380371
1531743879.230235,654.702148438,888.2893676760001,853.744812012,638.252380371
1531743879.234784,653.0571899409999,886.64440918,850.454833984,643.187316895
1531743879.239333,661.2821044919999,886.64440918,848.809875488,644.8322753909999
1531743879.2438812,664.57208252,888.2893676760001,852.09979248,651.412231445
1531743879.2484298,671.151977539,886.64440918,848.809875488,654.702148438
1531743879.2529786,677.7318725590001,884.999450684,848.809875488,657.992126465
1531743879.2575274,672.796936035,878.4194946289999,847.164855957,662.927062988
1531743879.262076,690.8917236330001,881.7094726560001,845.519897461,671.151977539
1531743879.2666245,697.471679688,884.999450684,845.519897461,671.151977539
1531743879.271173,702.406616211,883.354431152,845.519897461,677.7318725590001
1531743879.2757218,707.341552734,883.354431152,848.809875488,682.6668701169999
1531743879.2802706,707.341552734,880.064453125,845.519897461,681.021850586
1531743879.2848194,708.98651123,873.484558105,847.164855957,689.246765137
1531743879.2893677,715.566467285,870.1945800780001,847.164855957,692.536743164
1531743879.2939162,722.146362305,873.484558105,845.519897461,695.8266601560001
1531743879.298465,727.0812988280001,875.129516602,843.874938965,708.98651123
1531743879.3030136,730.371276855,871.839599609,843.874938965,713.9214477539999
1531743879.3075626,735.3062133789999,871.839599609,843.874938965,717.2114257810001
1531743879.3121107,740.241149902,870.1945800780001,842.229919434,722.146362305
1531743879.3166597,741.886108398,868.549621582,845.519897461,720.501403809
1531743879.3212082,750.1110229489999,866.904663086,842.229919434,728.726318359
1531743879.3257568,756.6909790039999,866.904663086,843.874938965,738.5961914060001
1531743879.3303056,759.9808959960001,865.259643555,842.229919434,738.5961914060001
1531743879.334854,766.5608520510001,868.549621582,838.940002441,738.5961914060001
1531743879.3394027,771.4957885739999,865.259643555,838.940002441,736.951171875
1531743879.3439515,773.14074707,865.259643555,840.584960938,740.241149902
1531743879.3485,774.785766602,866.904663086,840.584960938,746.821105957
1531743879.3530488,778.0756835939999,865.259643555,843.874938965,755.045959473
1531743879.3575974,776.430725098,865.259643555,842.229919434,753.401000977
1531743879.3621461,783.0106201169999,861.969726562,840.584960938,761.625915527
1531743879.3666947,784.655639648,863.614685059,840.584960938,764.91583252
1531743879.3712432,789.5905761719999,863.614685059,838.940002441,769.8508300780001
1531743879.375792,799.4604492189999,860.3247070310001,837.29498291,776.430725098
1531743879.3803403,794.525512695,857.0347290039999,835.650024414,771.4957885739999
1531743879.3848894,804.3953857419999,857.0347290039999,835.650024414,779.720703125
1531743879.3894382,806.040344238,858.679748535,832.360046387,783.0106201169999
1531743879.3939865,802.7504272460001,853.744812012,835.650024414,787.945556641
1531743879.3985353,799.4604492189999,855.3897705080001,835.650024414,787.945556641
1531743879.4030838,801.105407715,855.3897705080001,830.715087891,789.5905761719999
1531743879.4076324,807.68536377,853.744812012,832.360046387,787.945556641
1531743879.4121811,817.555236816,860.3247070310001,829.070068359,789.5905761719999
1531743879.4167295,824.135131836,860.3247070310001,830.715087891,799.4604492189999
1531743879.4212785,827.425109863,861.969726562,830.715087891,797.815490723
1531743879.425827,822.49017334,858.679748535,832.360046387,801.105407715
1531743879.4303756,822.49017334,853.744812012,832.360046387,804.3953857419999
1531743879.4349244,820.8452148439999,858.679748535,830.715087891,799.4604492189999
1531743879.4394727,817.555236816,853.744812012,832.360046387,802.7504272460001
1531743879.4440215,822.49017334,853.744812012,832.360046387,804.3953857419999
1531743879.4485705,824.135131836,853.744812012,834.0050048830001,804.3953857419999
1531743879.4531188,827.425109863,848.809875488,832.360046387,806.040344238
1531743879.4576676,832.360046387,848.809875488,830.715087891,809.330322266
1531743879.462216,834.0050048830001,848.809875488,832.360046387,807.68536377
1531743879.466765,834.0050048830001,845.519897461,834.0050048830001,807.68536377
1531743879.4713135,837.29498291,847.164855957,834.0050048830001,809.330322266
1531743879.475862,830.715087891,847.164855957,832.360046387,804.3953857419999
1531743879.4804108,824.135131836,843.874938965,834.0050048830001,804.3953857419999
1531743879.4849596,832.360046387,847.164855957,832.360046387,802.7504272460001
1531743879.4895082,835.650024414,850.454833984,832.360046387,806.040344238
1531743879.494057,835.650024414,847.164855957,830.715087891,810.975280762
1531743879.4986053,840.584960938,845.519897461,829.070068359,812.620300293
1531743879.5031538,845.519897461,845.519897461,832.360046387,812.620300293
1531743879.5077026,845.519897461,848.809875488,829.070068359,814.265258789
1531743879.5122516,848.809875488,848.809875488,830.715087891,807.68536377
1531743879.5168,843.874938965,842.229919434,832.360046387,806.040344238
1531743879.5213485,838.940002441,845.519897461,830.715087891,814.265258789
1531743879.5258973,838.940002441,847.164855957,837.29498291,814.265258789
1531743879.5304458,830.715087891,843.874938965,838.940002441,824.135131836
1531743879.5349946,832.360046387,840.584960938,840.584960938,834.0050048830001
1531743879.5395432,835.650024414,843.874938965,840.584960938,827.425109863
1531743879.5440915,842.229919434,843.874938965,834.0050048830001,830.715087891
1531743879.5486405,848.809875488,852.09979248,830.715087891,832.360046387
1531743879.553189,845.519897461,848.809875488,834.0050048830001,832.360046387
1531743879.5577376,845.519897461,843.874938965,835.650024414,832.360046387
1531743879.5622866,848.809875488,842.229919434,834.0050048830001,837.29498291
1531743879.5668347,850.454833984,843.874938965,832.360046387,834.0050048830001
1531743879.5713835,847.164855957,845.519897461,830.715087891,832.360046387
1531743879.5759325,842.229919434,842.229919434,837.29498291,834.0050048830001
1531743879.5804813,842.229919434,840.584960938,838.940002441,829.070068359
1531743879.5850296,852.09979248,840.584960938,837.29498291,842.229919434
1531743879.5895784,852.09979248,843.874938965,835.650024414,843.874938965
1531743879.5941267,847.164855957,843.874938965,832.360046387,835.650024414
1531743879.5986755,842.229919434,845.519897461,835.650024414,837.29498291
1531743879.6032245,834.0050048830001,837.29498291,835.650024414,830.715087891
1531743879.6077726,838.940002441,837.29498291,832.360046387,832.360046387
1531743879.6123214,842.229919434,843.874938965,825.7801513669999,829.070068359
1531743879.6168704,842.229919434,845.519897461,827.425109863,822.49017334
1531743879.6214187,843.874938965,843.874938965,832.360046387,822.49017334
1531743879.6259675,847.164855957,838.940002441,832.360046387,827.425109863
1531743879.630516,853.744812012,837.29498291,835.650024414,830.715087891
1531743879.6350644,848.809875488,838.940002441,832.360046387,830.715087891
1531743879.6396134,847.164855957,837.29498291,829.070068359,832.360046387
1531743879.644162,853.744812012,837.29498291,832.360046387,827.425109863
1531743879.6487107,855.3897705080001,835.650024414,834.0050048830001,837.29498291
1531743879.6532593,853.744812012,838.940002441,830.715087891,837.29498291
1531743879.6578078,857.0347290039999,842.229919434,830.715087891,832.360046387
1531743879.6623564,857.0347290039999,837.29498291,832.360046387,840.584960938
1531743879.6669052,857.0347290039999,830.715087891,834.0050048830001,848.809875488
1531743879.671454,852.09979248,830.715087891,835.650024414,843.874938965
1531743879.6760025,852.09979248,832.360046387,837.29498291,852.09979248
1531743879.6805513,847.164855957,840.584960938,832.360046387,847.164855957
1531743879.6850998,845.519897461,840.584960938,830.715087891,840.584960938
1531743879.6896484,847.164855957,837.29498291,830.715087891,847.164855957
1531743879.6941972,843.874938965,837.29498291,832.360046387,847.164855957
1531743879.6987455,838.940002441,837.29498291,830.715087891,840.584960938
1531743879.7032945,837.29498291,835.650024414,829.070068359,835.650024414
1531743879.707843,848.809875488,837.29498291,832.360046387,847.164855957
1531743879.7123914,852.09979248,835.650024414,830.715087891,848.809875488
1531743879.7169404,853.744812012,837.29498291,830.715087891,850.454833984
1531743879.721489,852.09979248,838.940002441,827.425109863,855.3897705080001
1531743879.7260375,852.09979248,838.940002441,829.070068359,853.744812012
1531743879.7305865,855.3897705080001,834.0050048830001,830.715087891,863.614685059
1531743879.7351348,857.0347290039999,832.360046387,832.360046387,861.969726562
1531743879.7396836,860.3247070310001,834.0050048830001,830.715087891,865.259643555
1531743879.7442322,858.679748535,835.650024414,822.49017334,858.679748535
1531743879.7487807,861.969726562,838.940002441,827.425109863,848.809875488
1531743879.7533295,855.3897705080001,837.29498291,829.070068359,852.09979248
1531743879.7578778,855.3897705080001,838.940002441,827.425109863,852.09979248
1531743879.7624269,858.679748535,838.940002441,825.7801513669999,857.0347290039999
1531743879.7669756,857.0347290039999,837.29498291,829.070068359,857.0347290039999
1531743879.771524,861.969726562,835.650024414,832.360046387,857.0347290039999
1531743879.7760727,857.0347290039999,837.29498291,830.715087891,852.09979248
1531743879.7806213,858.679748535,837.29498291,829.070068359,852.09979248
1531743879.7851698,866.904663086,840.584960938,824.135131836,857.0347290039999
1531743879.7897186,868.549621582,838.940002441,834.0050048830001,861.969726562
1531743879.7942672,866.904663086,837.29498291,832.360046387,861.969726562
1531743879.798816,868.549621582,840.584960938,830.715087891,858.679748535
1531743879.8033645,863.614685059,837.29498291,829.070068359,855.3897705080001
1531743879.8079133,860.3247070310001,835.650024414,829.070068359,852.09979248
1531743879.8124619,860.3247070310001,834.0050048830001,832.360046387,858.679748535
1531743879.8170106,861.969726562,838.940002441,830.715087891,863.614685059
1531743879.8215592,863.614685059,840.584960938,827.425109863,855.3897705080001
1531743879.8261075,865.259643555,840.584960938,830.715087891,857.0347290039999
1531743879.8306565,861.969726562,835.650024414,834.0050048830001,860.3247070310001
1531743879.8352053,865.259643555,835.650024414,834.0050048830001,858.679748535
1531743879.8397536,870.1945800780001,837.29498291,829.070068359,861.969726562
1531743879.8443027,870.1945800780001,837.29498291,827.425109863,853.744812012
1531743879.848851,861.969726562,832.360046387,832.360046387,853.744812012
1531743879.8533998,852.09979248,832.360046387,832.360046387,848.809875488
1531743879.8579485,852.09979248,835.650024414,832.360046387,845.519897461
1531743879.8624966,855.3897705080001,835.650024414,830.715087891,845.519897461
1531743879.8670454,857.0347290039999,832.360046387,834.0050048830001,852.09979248
1531743879.8715944,860.3247070310001,832.360046387,829.070068359,853.744812012
1531743879.876143,850.454833984,835.650024414,825.7801513669999,857.0347290039999
1531743879.8806913,842.229919434,835.650024414,832.360046387,855.3897705080001
1531743879.88524,847.164855957,837.29498291,829.070068359,855.3897705080001
1531743879.8897886,848.809875488,834.0050048830001,832.360046387,853.744812012
1531743879.8943374,847.164855957,835.650024414,834.0050048830001,852.09979248
1531743879.8988864,852.09979248,835.650024414,830.715087891,855.3897705080001
1531743879.9034348,852.09979248,837.29498291,830.715087891,857.0347290039999
1531743879.9079833,847.164855957,835.650024414,829.070068359,852.09979248
1531743879.912532,847.164855957,834.0050048830001,825.7801513669999,847.164855957
1531743879.9170804,845.519897461,832.360046387,830.715087891,842.229919434
1531743879.9216294,847.164855957,832.360046387,830.715087891,852.09979248
1531743879.926178,852.09979248,830.715087891,829.070068359,850.454833984
1531743879.9307265,847.164855957,835.650024414,825.7801513669999,847.164855957
1531743879.935275,850.454833984,834.0050048830001,824.135131836,855.3897705080001
1531743879.939824,848.809875488,829.070068359,830.715087891,858.679748535
1531743879.9443727,853.744812012,832.360046387,830.715087891,863.614685059
1531743879.9489212,855.3897705080001,834.0050048830001,827.425109863,865.259643555
1531743879.9534698,853.744812012,837.29498291,827.425109863,857.0347290039999
1531743879.9580185,852.09979248,835.650024414,825.7801513669999,847.164855957
1531743879.962567,848.809875488,830.715087891,824.135131836,847.164855957
1531743879.9671154,845.519897461,827.425109863,819.200195312,842.229919434
1531743879.9716644,837.29498291,830.715087891,819.200195312,840.584960938
1531743879.976213,834.0050048830001,830.715087891,825.7801513669999,845.519897461
1531743879.9807618,835.650024414,832.360046387,827.425109863,845.519897461
1531743879.9853106,837.29498291,830.715087891,830.715087891,838.940002441
1531743879.9898589,837.29498291,834.0050048830001,825.7801513669999,840.584960938
1531743879.9944074,845.519897461,832.360046387,827.425109863,837.29498291
1531743879.9989562,840.584960938,834.0050048830001,825.7801513669999,837.29498291
1531743880.003505,832.360046387,835.650024414,822.49017334,837.29498291
1531743880.0080535,835.650024414,835.650024414,825.7801513669999,840.584960938
1531743880.0126019,838.940002441,835.650024414,825.7801513669999,843.874938965
1531743880.0171509,837.29498291,830.715087891,825.7801513669999,845.519897461
1531743880.0216994,845.519897461,835.650024414,829.070068359,850.454833984
1531743880.0262482,842.229919434,835.650024414,825.7801513669999,845.519897461
1531743880.0307968,850.454833984,837.29498291,829.070068359,857.0347290039999
1531743880.0353453,850.454833984,832.360046387,830.715087891,858.679748535
1531743880.0398939,855.3897705080001,832.360046387,829.070068359,857.0347290039999
1531743880.044443,853.744812012,837.29498291,820.8452148439999,855.3897705080001
1531743880.0489914,850.454833984,834.0050048830001,824.135131836,860.3247070310001
1531743880.05354,858.679748535,835.650024414,827.425109863,860.3247070310001
1531743880.0580885,857.0347290039999,830.715087891,827.425109863,855.3897705080001
1531743880.0626373,852.09979248,830.715087891,830.715087891,860.3247070310001
1531743880.0671859,848.809875488,832.360046387,829.070068359,855.3897705080001
1531743880.0717347,850.454833984,832.360046387,825.7801513669999,850.454833984
1531743880.0762832,853.744812012,830.715087891,830.715087891,853.744812012
1531743880.0808318,857.0347290039999,834.0050048830001,829.070068359,838.940002441
1531743880.0853806,858.679748535,837.29498291,829.070068359,845.519897461
1531743880.0899293,857.0347290039999,838.940002441,827.425109863,845.519897461
1531743880.094478,855.3897705080001,838.940002441,825.7801513669999,848.809875488
1531743880.0990267,848.809875488,832.360046387,830.715087891,848.809875488
1531743880.103575,850.454833984,830.715087891,830.715087891,853.744812012
1531743880.1081238,848.809875488,830.715087891,834.0050048830001,853.744812012
1531743880.1126726,855.3897705080001,827.425109863,834.0050048830001,858.679748535
1531743880.1172214,858.679748535,829.070068359,830.715087891,858.679748535
1531743880.1217694,863.614685059,830.715087891,832.360046387,860.3247070310001
1531743880.1263182,853.744812012,827.425109863,830.715087891,858.679748535
1531743880.130867,853.744812012,829.070068359,830.715087891,855.3897705080001
1531743880.1354153,857.0347290039999,829.070068359,827.425109863,855.3897705080001
1531743880.1399643,860.3247070310001,830.715087891,830.715087891,858.679748535
1531743880.1445127,857.0347290039999,827.425109863,827.425109863,860.3247070310001
1531743880.1490614,858.679748535,825.7801513669999,830.715087891,860.3247070310001
1531743880.1536102,860.3247070310001,832.360046387,834.0050048830001,860.3247070310001
1531743880.1581588,860.3247070310001,829.070068359,830.715087891,857.0347290039999
1531743880.1627073,871.839599609,832.360046387,832.360046387,861.969726562
1531743880.167256,871.839599609,829.070068359,830.715087891,861.969726562
1531743880.1718047,861.969726562,827.425109863,827.425109863,858.679748535
1531743880.1763535,863.614685059,829.070068359,832.360046387,861.969726562
1531743880.180902,865.259643555,834.0050048830001,825.7801513669999,858.679748535
1531743880.1854508,861.969726562,838.940002441,825.7801513669999,853.744812012
1531743880.189999,865.259643555,838.940002441,827.425109863,857.0347290039999
1531743880.1945481,868.549621582,838.940002441,825.7801513669999,863.614685059
1531743880.1990967,870.1945800780001,832.360046387,827.425109863,870.1945800780001
1531743880.2036452,871.839599609,834.0050048830001,829.070068359,866.904663086
1531743880.208194,868.549621582,832.360046387,829.070068359,863.614685059
1531743880.2127426,863.614685059,837.29498291,825.7801513669999,855.3897705080001
1531743880.217291,861.969726562,837.29498291,827.425109863,852.09979248
1531743880.2218401,857.0347290039999,832.360046387,829.070068359,855.3897705080001
1531743880.2263885,860.3247070310001,832.360046387,830.715087891,857.0347290039999
1531743880.2309372,861.969726562,837.29498291,830.715087891,855.3897705080001
1531743880.2354858,861.969726562,838.940002441,825.7801513669999,855.3897705080001
1531743880.2400346,866.904663086,838.940002441,825.7801513669999,858.679748535
1531743880.2445831,857.0347290039999,837.29498291,829.070068359,855.3897705080001
1531743880.2491314,861.969726562,837.29498291,834.0050048830001,861.969726562
1531743880.2536805,863.614685059,835.650024414,835.650024414,868.549621582
1531743880.258229,865.259643555,837.29498291,837.29498291,868.549621582
1531743880.2627776,865.259643555,834.0050048830001,838.940002441,868.549621582
1531743880.2673266,865.259643555,832.360046387,835.650024414,871.839599609
1531743880.271875,868.549621582,834.0050048830001,837.29498291,878.4194946289999
1531743880.2764235,871.839599609,837.29498291,835.650024414,873.484558105
1531743880.2809722,871.839599609,837.29498291,835.650024414,868.549621582
1531743880.2855208,861.969726562,835.650024414,835.650024414,865.259643555
1531743880.2900696,865.259643555,834.0050048830001,834.0050048830001,858.679748535
1531743880.294618,876.7745361330001,838.940002441,830.715087891,863.614685059
1531743880.2991667,871.839599609,840.584960938,832.360046387,863.614685059
1531743880.3037155,865.259643555,838.940002441,834.0050048830001,863.614685059
1531743880.308264,868.549621582,837.29498291,832.360046387,865.259643555
1531743880.3128128,858.679748535,834.0050048830001,830.715087891,861.969726562
1531743880.3173616,865.259643555,837.29498291,829.070068359,858.679748535
1531743880.32191,861.969726562,837.29498291,832.360046387,865.259643555
1531743880.3264587,855.3897705080001,834.0050048830001,832.360046387,858.679748535
1531743880.3310072,858.679748535,834.0050048830001,834.0050048830001,848.809875488
1531743880.335556,860.3247070310001,834.0050048830001,834.0050048830001,861.969726562
1531743880.3401046,860.3247070310001,830.715087891,830.715087891,848.809875488
1531743880.3446536,857.0347290039999,832.360046387,832.360046387,860.3247070310001
1531743880.349202,866.904663086,832.360046387,838.940002441,865.259643555
1531743880.3537505,863.614685059,830.715087891,835.650024414,858.679748535
1531743880.3582993,866.904663086,835.650024414,837.29498291,857.0347290039999
1531743880.3628476,868.549621582,837.29498291,837.29498291,863.614685059
1531743880.3673966,863.614685059,832.360046387,837.29498291,855.3897705080001
1531743880.3719454,866.904663086,837.29498291,835.650024414,855.3897705080001
1531743880.3764935,863.614685059,835.650024414,835.650024414,863.614685059
1531743880.3810425,861.969726562,835.650024414,835.650024414,860.3247070310001
1531743880.385591,863.614685059,837.29498291,835.650024414,861.969726562
1531743880.3901398,861.969726562,832.360046387,834.0050048830001,855.3897705080001
1531743880.3946884,861.969726562,837.29498291,830.715087891,853.744812012
1531743880.3992367,860.3247070310001,837.29498291,829.070068359,857.0347290039999
1531743880.4037855,861.969726562,838.940002441,830.715087891,861.969726562
1531743880.4083345,860.3247070310001,837.29498291,830.715087891,857.0347290039999
1531743880.412883,861.969726562,835.650024414,832.360046387,842.229919434
1531743880.4174314,865.259643555,832.360046387,830.715087891,845.519897461
1531743880.4219801,858.679748535,837.29498291,829.070068359,840.584960938
1531743880.4265287,852.09979248,838.940002441,830.715087891,843.874938965
1531743880.4310775,847.164855957,835.650024414,832.360046387,850.454833984
1531743880.4356265,845.519897461,838.940002441,830.715087891,837.29498291
1531743880.4401748,843.874938965,837.29498291,829.070068359,837.29498291
1531743880.4447234,843.874938965,835.650024414,832.360046387,832.360046387
1531743880.4492722,838.940002441,830.715087891,830.715087891,830.715087891
1531743880.4538207,845.519897461,830.715087891,834.0050048830001,829.070068359
1531743880.4583695,852.09979248,835.650024414,834.0050048830001,829.070068359
1531743880.462918,853.744812012,840.584960938,830.715087891,829.070068359
1531743880.4674664,855.3897705080001,842.229919434,832.360046387,824.135131836
1531743880.4720154,852.09979248,834.0050048830001,834.0050048830001,825.7801513669999
1531743880.4765642,848.809875488,830.715087891,834.0050048830001,829.070068359
1531743880.4811127,840.584960938,834.0050048830001,830.715087891,834.0050048830001
1531743880.4856613,845.519897461,838.940002441,830.715087891,843.874938965
1531743880.4902098,837.29498291,837.29498291,832.360046387,834.0050048830001
1531743880.4947586,840.584960938,838.940002441,827.425109863,830.715087891
1531743880.4993072,847.164855957,835.650024414,830.715087891,838.940002441
1531743880.503856,845.519897461,835.650024414,827.425109863,832.360046387
1531743880.5084045,848.809875488,838.940002441,825.7801513669999,842.229919434
1531743880.512953,842.229919434,837.29498291,834.0050048830001,842.229919434
1531743880.5175018,842.229919434,835.650024414,830.715087891,837.29498291
1531743880.5220506,847.164855957,835.650024414,830.715087891,838.940002441
1531743880.5265992,852.09979248,834.0050048830001,832.360046387,842.229919434
1531743880.5311475,852.09979248,832.360046387,832.360046387,840.584960938
1531743880.5356965,847.164855957,837.29498291,830.715087891,834.0050048830001
1531743880.5402453,845.519897461,838.940002441,832.360046387,837.29498291
1531743880.5447936,847.164855957,834.0050048830001,835.650024414,842.229919434
1531743880.5493426,850.454833984,837.29498291,830.715087891,842.229919434
1531743880.5538907,847.164855957,834.0050048830001,829.070068359,840.584960938
1531743880.5584395,850.454833984,834.0050048830001,835.650024414,845.519897461
1531743880.5629885,848.809875488,837.29498291,834.0050048830001,847.164855957
1531743880.5675368,842.229919434,835.650024414,837.29498291,845.519897461
1531743880.5720856,847.164855957,837.29498291,835.650024414,853.744812012
1531743880.5766342,850.454833984,835.650024414,834.0050048830001,840.584960938
1531743880.5811827,853.744812012,835.650024414,832.360046387,845.519897461
1531743880.5857315,853.744812012,835.650024414,835.650024414,850.454833984
1531743880.59028,850.454833984,835.650024414,840.584960938,853.744812012
1531743880.5948286,847.164855957,835.650024414,837.29498291,852.09979248
1531743880.5993776,852.09979248,835.650024414,838.940002441,857.0347290039999
1531743880.603926,855.3897705080001,838.940002441,837.29498291,852.09979248
1531743880.6084747,857.0347290039999,837.29498291,834.0050048830001,848.809875488
1531743880.6130233,858.679748535,835.650024414,837.29498291,850.454833984
1531743880.617572,857.0347290039999,834.0050048830001,837.29498291,852.09979248
1531743880.6221206,857.0347290039999,835.650024414,835.650024414,848.809875488
1531743880.6266694,857.0347290039999,840.584960938,834.0050048830001,852.09979248
1531743880.631218,863.614685059,838.940002441,835.650024414,847.164855957
1531743880.6357665,861.969726562,837.29498291,832.360046387,838.940002441
1531743880.6403153,852.09979248,834.0050048830001,832.360046387,843.874938965
1531743880.6448636,848.809875488,837.29498291,838.940002441,847.164855957
1531743880.6494124,847.164855957,837.29498291,838.940002441,848.809875488
1531743880.6539614,852.09979248,837.29498291,835.650024414,853.744812012
1531743880.6585095,855.3897705080001,837.29498291,834.0050048830001,850.454833984
1531743880.6630585,857.0347290039999,837.29498291,830.715087891,850.454833984
1531743880.6676073,860.3247070310001,838.940002441,834.0050048830001,857.0347290039999
1531743880.6721554,858.679748535,837.29498291,835.650024414,857.0347290039999
1531743880.6767044,865.259643555,837.29498291,835.650024414,850.454833984
1531743880.681253,863.614685059,837.29498291,832.360046387,843.874938965
1531743880.6858015,858.679748535,837.29498291,829.070068359,847.164855957
1531743880.6903505,863.614685059,840.584960938,830.715087891,848.809875488
1531743880.6948988,860.3247070310001,835.650024414,830.715087891,843.874938965
1531743880.6994474,858.679748535,837.29498291,829.070068359,842.229919434
1531743880.7039962,860.3247070310001,840.584960938,829.070068359,843.874938965
1531743880.708545,855.3897705080001,834.0050048830001,830.715087891,847.164855957
1531743880.7130935,857.0347290039999,835.650024414,829.070068359,848.809875488
1531743880.717642,857.0347290039999,835.650024414,834.0050048830001,848.809875488
1531743880.7221909,848.809875488,832.360046387,837.29498291,850.454833984
1531743880.7267394,852.09979248,835.650024414,832.360046387,848.809875488
1531743880.7312882,852.09979248,834.0050048830001,835.650024414,847.164855957
1531743880.7358367,853.744812012,830.715087891,835.650024414,843.874938965
1531743880.740385,865.259643555,832.360046387,835.650024414,848.809875488
1531743880.744934,863.614685059,834.0050048830001,834.0050048830001,853.744812012
1531743880.7494824,866.904663086,832.360046387,829.070068359,852.09979248
1531743880.7540314,871.839599609,832.360046387,832.360046387,850.454833984
1531743880.75858,871.839599609,837.29498291,837.29498291,847.164855957
1531743880.7631285,871.839599609,837.29498291,835.650024414,848.809875488
1531743880.7676773,866.904663086,838.940002441,835.650024414,840.584960938
1531743880.772226,865.259643555,837.29498291,832.360046387,842.229919434
1531743880.7767744,861.969726562,830.715087891,832.360046387,843.874938965
1531743880.7813232,861.969726562,830.715087891,837.29498291,845.519897461
1531743880.7858715,861.969726562,834.0050048830001,837.29498291,857.0347290039999
1531743880.7904205,866.904663086,835.650024414,834.0050048830001,853.744812012
1531743880.7949693,860.3247070310001,835.650024414,834.0050048830001,855.3897705080001
1531743880.7995179,861.969726562,834.0050048830001,834.0050048830001,852.09979248
1531743880.8040664,861.969726562,837.29498291,834.0050048830001,847.164855957
1531743880.808615,855.3897705080001,834.0050048830001,835.650024414,845.519897461
1531743880.8131638,858.679748535,834.0050048830001,834.0050048830001,845.519897461
1531743880.8177125,855.3897705080001,835.650024414,834.0050048830001,840.584960938
1531743880.8222613,857.0347290039999,832.360046387,835.650024414,843.874938965
1531743880.8268096,855.3897705080001,834.0050048830001,835.650024414,842.229919434
1531743880.8313582,860.3247070310001,834.0050048830001,835.650024414,848.809875488
1531743880.835907,860.3247070310001,835.650024414,837.29498291,853.744812012
1531743880.8404555,863.614685059,835.650024414,835.650024414,858.679748535
1531743880.8450046,860.3247070310001,835.650024414,838.940002441,852.09979248
1531743880.8495526,855.3897705080001,838.940002441,837.29498291,850.454833984
1531743880.8541017,853.744812012,837.29498291,830.715087891,848.809875488
1531743880.8586502,853.744812012,837.29498291,825.7801513669999,842.229919434
1531743880.8631988,860.3247070310001,842.229919434,829.070068359,845.519897461
1531743880.8677475,852.09979248,837.29498291,830.715087891,843.874938965
1531743880.872296,858.679748535,835.650024414,832.360046387,848.809875488
1531743880.8768446,865.259643555,837.29498291,832.360046387,852.09979248
1531743880.8813937,865.259643555,832.360046387,832.360046387,850.454833984
1531743880.885942,870.1945800780001,838.940002441,829.070068359,853.744812012
1531743880.8904908,861.969726562,842.229919434,830.715087891,855.3897705080001
1531743880.8950393,863.614685059,838.940002441,827.425109863,845.519897461
1531743880.899588,860.3247070310001,837.29498291,825.7801513669999,847.164855957
1531743880.9041367,858.679748535,835.650024414,829.070068359,842.229919434
1531743880.9086852,857.0347290039999,837.29498291,825.7801513669999,842.229919434
1531743880.913234,858.679748535,840.584960938,829.070068359,847.164855957
1531743880.9177823,861.969726562,838.940002441,830.715087891,837.29498291
1531743880.9223313,860.3247070310001,837.29498291,830.715087891,834.0050048830001
1531743880.9268801,857.0347290039999,835.650024414,832.360046387,838.940002441
1531743880.9314284,850.454833984,834.0050048830001,834.0050048830001,843.874938965
1531743880.9359775,853.744812012,832.360046387,832.360046387,845.519897461
1531743880.9405258,857.0347290039999,835.650024414,832.360046387,845.519897461
1531743880.9450743,855.3897705080001,837.29498291,830.715087891,847.164855957
1531743880.9496233,860.3247070310001,837.29498291,830.715087891,853.744812012
1531743880.9541714,855.3897705080001,835.650024414,834.0050048830001,850.454833984
1531743880.9587204,860.3247070310001,835.650024414,835.650024414,853.744812012
1531743880.963269,860.3247070310001,832.360046387,832.360046387,852.09979248
1531743880.9678175,855.3897705080001,832.360046387,829.070068359,850.454833984
1531743880.9723663,850.454833984,835.650024414,829.070068359,850.454833984
1531743880.976915,842.229919434,830.715087891,827.425109863,843.874938965
1531743880.9814634,837.29498291,832.360046387,834.0050048830001,845.519897461
1531743880.9860122,847.164855957,835.650024414,834.0050048830001,842.229919434
1531743880.9905608,847.164855957,834.0050048830001,830.715087891,845.519897461
1531743880.9951096,852.09979248,838.940002441,830.715087891,843.874938965
1531743880.999658,852.09979248,840.584960938,825.7801513669999,829.070068359
1531743881.004207,857.0347290039999,842.229919434,829.070068359,825.7801513669999
1531743881.0087554,855.3897705080001,842.229919434,829.070068359,820.8452148439999
1531743881.013304,852.09979248,837.29498291,829.070068359,819.200195312
1531743881.0178528,855.3897705080001,840.584960938,829.070068359,824.135131836
1531743881.022401,852.09979248,837.29498291,827.425109863,822.49017334
1531743881.02695,858.679748535,838.940002441,827.425109863,824.135131836
1531743881.031499,860.3247070310001,840.584960938,830.715087891,827.425109863
1531743881.0360472,853.744812012,838.940002441,827.425109863,830.715087891
1531743881.040596,857.0347290039999,842.229919434,829.070068359,835.650024414
1531743881.0451446,848.809875488,837.29498291,829.070068359,832.360046387
1531743881.049693,848.809875488,835.650024414,830.715087891,837.29498291
1531743881.054242,852.09979248,835.650024414,835.650024414,835.650024414
1531743881.0587904,848.809875488,834.0050048830001,834.0050048830001,837.29498291
1531743881.0633392,852.09979248,835.650024414,832.360046387,840.584960938
1531743881.0678878,845.519897461,835.650024414,830.715087891,838.940002441
1531743881.0724366,848.809875488,837.29498291,834.0050048830001,840.584960938
1531743881.0769851,857.0347290039999,838.940002441,835.650024414,843.874938965
1531743881.0815337,855.3897705080001,838.940002441,834.0050048830001,840.584960938
1531743881.0860825,855.3897705080001,835.650024414,834.0050048830001,842.229919434
1531743881.090631,850.454833984,832.360046387,832.360046387,834.0050048830001
1531743881.0951798,850.454833984,834.0050048830001,830.715087891,832.360046387
1531743881.0997286,852.09979248,835.650024414,827.425109863,824.135131836
1531743881.1042767,855.3897705080001,838.940002441,825.7801513669999,827.425109863
1531743881.1088257,853.744812012,840.584960938,824.135131836,829.070068359
1531743881.1133742,855.3897705080001,837.29498291,829.070068359,815.91027832
1531743881.117923,855.3897705080001,837.29498291,829.070068359,825.7801513669999
1531743881.1224716,852.09979248,834.0050048830001,827.425109863,825.7801513669999
1531743881.12702,850.454833984,835.650024414,825.7801513669999,830.715087891
1531743881.1315687,855.3897705080001,837.29498291,827.425109863,842.229919434
1531743881.1361177,853.744812012,835.650024414,829.070068359,840.584960938
1531743881.1406662,850.454833984,832.360046387,830.715087891,845.519897461
1531743881.1452148,857.0347290039999,834.0050048830001,832.360046387,852.09979248
1531743881.1497633,853.744812012,834.0050048830001,830.715087891,853.744812012
1531743881.154312,857.0347290039999,832.360046387,832.360046387,848.809875488
1531743881.1588607,861.969726562,835.650024414,830.715087891,847.164855957
1531743881.1634095,866.904663086,835.650024414,830.715087891,855.3897705080001
1531743881.167958,868.549621582,837.29498291,824.135131836,845.519897461
1531743881.1725063,868.549621582,837.29498291,825.7801513669999,842.229919434
1531743881.1770554,863.614685059,834.0050048830001,830.715087891,840.584960938
1531743881.181604,857.0347290039999,832.360046387,830.715087891,835.650024414
1531743881.1861527,858.679748535,837.29498291,830.715087891,842.229919434
1531743881.1907012,863.614685059,838.940002441,827.425109863,843.874938965
1531743881.1952498,866.904663086,835.650024414,830.715087891,845.519897461
1531743881.1997983,868.549621582,832.360046387,832.360046387,855.3897705080001
1531743881.2043474,870.1945800780001,832.360046387,830.715087891,853.744812012
1531743881.2088962,861.969726562,835.650024414,830.715087891,850.454833984
1531743881.2134445,871.839599609,835.650024414,827.425109863,845.519897461
1531743881.217993,870.1945800780001,834.0050048830001,830.715087891,845.519897461
1531743881.2225418,868.549621582,835.650024414,832.360046387,848.809875488
1531743881.2270904,870.1945800780001,834.0050048830001,834.0050048830001,855.3897705080001
1531743881.2316391,863.614685059,837.29498291,830.715087891,848.809875488
1531743881.2361875,860.3247070310001,834.0050048830001,830.715087891,840.584960938
1531743881.2407362,860.3247070310001,834.0050048830001,830.715087891,847.164855957
1531743881.245285,860.3247070310001,838.940002441,827.425109863,843.874938965
1531743881.2498336,857.0347290039999,840.584960938,830.715087891,850.454833984
1531743881.2543824,861.969726562,843.874938965,829.070068359,848.809875488
1531743881.2589307,868.549621582,842.229919434,829.070068359,852.09979248
1531743881.2634795,861.969726562,837.29498291,832.360046387,850.454833984
1531743881.2680285,861.969726562,837.29498291,834.0050048830001,853.744812012
1531743881.2725768,858.679748535,838.940002441,830.715087891,845.519897461
1531743881.2771256,858.679748535,838.940002441,829.070068359,842.229919434
1531743881.281674,863.614685059,838.940002441,832.360046387,848.809875488
1531743881.2862227,868.549621582,837.29498291,832.360046387,852.09979248
1531743881.2907715,865.259643555,834.0050048830001,830.715087891,855.3897705080001
1531743881.29532,860.3247070310001,832.360046387,838.940002441,848.809875488
1531743881.2998688,861.969726562,834.0050048830001,835.650024414,848.809875488
1531743881.3044176,863.614685059,835.650024414,838.940002441,853.744812012
1531743881.308966,861.969726562,838.940002441,838.940002441,853.744812012
1531743881.313515,863.614685059,837.29498291,835.650024414,857.0347290039999
1531743881.3180633,861.969726562,837.29498291,837.29498291,855.3897705080001
1531743881.3226118,861.969726562,837.29498291,837.29498291,857.0347290039999
1531743881.3271606,866.904663086,838.940002441,835.650024414,857.0347290039999
1531743881.3317091,861.969726562,842.229919434,834.0050048830001,853.744812012
1531743881.336258,860.3247070310001,842.229919434,834.0050048830001,847.164855957
1531743881.3408065,863.614685059,837.29498291,834.0050048830001,847.164855957
1531743881.3453553,861.969726562,835.650024414,830.715087891,842.229919434
1531743881.3499038,868.549621582,832.360046387,830.715087891,840.584960938
1531743881.3544526,871.839599609,830.715087891,829.070068359,840.584960938
1531743881.3590012,878.4194946289999,835.650024414,827.425109863,840.584960938
1531743881.3635495,876.7745361330001,837.29498291,825.7801513669999,845.519897461
1531743881.3680985,873.484558105,835.650024414,825.7801513669999,843.874938965
1531743881.372647,868.549621582,835.650024414,825.7801513669999,843.874938965
1531743881.3771956,865.259643555,835.650024414,822.49017334,843.874938965
1531743881.3817446,873.484558105,837.29498291,824.135131836,843.874938965
1531743881.3862927,866.904663086,835.650024414,824.135131836,842.229919434
1531743881.3908415,860.3247070310001,837.29498291,825.7801513669999,838.940002441
1531743881.3953905,852.09979248,832.360046387,827.425109863,837.29498291
1531743881.3999386,853.744812012,832.360046387,824.135131836,840.584960938
1531743881.4044876,858.679748535,832.360046387,825.7801513669999,852.09979248
1531743881.4090364,857.0347290039999,832.360046387,832.360046387,848.809875488
1531743881.4135847,861.969726562,835.650024414,835.650024414,855.3897705080001
1531743881.4181335,863.614685059,829.070068359,838.940002441,861.969726562
1531743881.422682,863.614685059,834.0050048830001,835.650024414,860.3247070310001
1531743881.4272306,863.614685059,835.650024414,835.650024414,863.614685059
1531743881.4317794,858.679748535,834.0050048830001,838.940002441,868.549621582
1531743881.4363284,860.3247070310001,837.29498291,840.584960938,861.969726562
1531743881.4408767,863.614685059,837.29498291,837.29498291,857.0347290039999
1531743881.4454253,860.3247070310001,837.29498291,840.584960938,868.549621582
1531743881.449974,855.3897705080001,842.229919434,837.29498291,857.0347290039999
1531743881.4545224,860.3247070310001,842.229919434,835.650024414,852.09979248
1531743881.4590714,863.614685059,840.584960938,835.650024414,850.454833984
1531743881.46362,861.969726562,843.874938965,834.0050048830001,843.874938965
1531743881.4681685,858.679748535,842.229919434,832.360046387,845.519897461
1531743881.4727173,855.3897705080001,837.29498291,835.650024414,857.0347290039999
1531743881.4772658,858.679748535,834.0050048830001,834.0050048830001,855.3897705080001
1531743881.4818144,860.3247070310001,835.650024414,834.0050048830001,848.809875488
1531743881.4863632,855.3897705080001,835.650024414,834.0050048830001,843.874938965
1531743881.4909115,848.809875488,834.0050048830001,835.650024414,843.874938965
1531743881.4954605,840.584960938,835.650024414,832.360046387,837.29498291
1531743881.5000093,842.229919434,838.940002441,829.070068359,832.360046387
1531743881.5045578,843.874938965,840.584960938,825.7801513669999,827.425109863
1531743881.5091064,840.584960938,834.0050048830001,825.7801513669999,830.715087891
1531743881.5136547,848.809875488,837.29498291,827.425109863,835.650024414
1531743881.5182035,852.09979248,840.584960938,830.715087891,829.070068359
1531743881.5227525,855.3897705080001,842.229919434,832.360046387,843.874938965
1531743881.527301,858.679748535,845.519897461,835.650024414,845.519897461
1531743881.5318494,858.679748535,837.29498291,837.29498291,852.09979248
1531743881.5363982,857.0347290039999,835.650024414,837.29498291,855.3897705080001
1531743881.540947,865.259643555,840.584960938,830.715087891,848.809875488
1531743881.5454955,860.3247070310001,840.584960938,830.715087891,840.584960938
1531743881.5500445,857.0347290039999,837.29498291,834.0050048830001,843.874938965
1531743881.5545928,845.519897461,832.360046387,835.650024414,838.940002441
1531743881.5591414,842.229919434,834.0050048830001,835.650024414,838.940002441
1531743881.5636902,843.874938965,842.229919434,832.360046387,835.650024414
1531743881.5682387,848.809875488,843.874938965,827.425109863,834.0050048830001
1531743881.5727875,845.519897461,842.229919434,829.070068359,829.070068359
1531743881.5773358,850.454833984,838.940002441,832.360046387,834.0050048830001
1531743881.5818846,853.744812012,838.940002441,832.360046387,829.070068359
1531743881.5864336,852.09979248,840.584960938,830.715087891,825.7801513669999
1531743881.590982,853.744812012,840.584960938,827.425109863,827.425109863
1531743881.5955307,853.744812012,838.940002441,824.135131836,827.425109863
1531743881.6000793,858.679748535,842.229919434,827.425109863,837.29498291
1531743881.6046278,857.0347290039999,835.650024414,830.715087891,837.29498291
1531743881.6091766,853.744812012,835.650024414,830.715087891,837.29498291
1531743881.6137252,850.454833984,838.940002441,834.0050048830001,837.29498291
1531743881.618274,852.09979248,838.940002441,830.715087891,835.650024414
1531743881.6228225,852.09979248,835.650024414,824.135131836,837.29498291
1531743881.6273713,845.519897461,832.360046387,830.715087891,832.360046387
1531743881.6319199,840.584960938,830.715087891,832.360046387,834.0050048830001
1531743881.6364686,852.09979248,835.650024414,835.650024414,838.940002441
1531743881.6410172,853.744812012,840.584960938,834.0050048830001,838.940002441
1531743881.6455655,855.3897705080001,837.29498291,829.070068359,842.229919434
1531743881.6501145,850.454833984,835.650024414,830.715087891,840.584960938
1531743881.6546633,845.519897461,838.940002441,837.29498291,842.229919434
1531743881.6592116,847.164855957,835.650024414,835.650024414,837.29498291
1531743881.6637607,852.09979248,835.650024414,829.070068359,832.360046387
1531743881.668309,853.744812012,837.29498291,825.7801513669999,830.715087891
1531743881.6728575,852.09979248,835.650024414,827.425109863,834.0050048830001
1531743881.6774065,860.3247070310001,838.940002441,832.360046387,842.229919434
1531743881.6819546,863.614685059,837.29498291,834.0050048830001,853.744812012
1531743881.6865034,863.614685059,838.940002441,834.0050048830001,860.3247070310001
1531743881.6910524,870.1945800780001,842.229919434,827.425109863,853.744812012
1531743881.6956007,873.484558105,845.519897461,825.7801513669999,847.164855957
1531743881.7001493,866.904663086,843.874938965,824.135131836,837.29498291
1531743881.704698,866.904663086,843.874938965,827.425109863,840.584960938
1531743881.7092466,871.839599609,843.874938965,829.070068359,848.809875488
1531743881.7137954,868.549621582,840.584960938,832.360046387,847.164855957
1531743881.718344,871.839599609,842.229919434,829.070068359,847.164855957
1531743881.7228928,868.549621582,840.584960938,829.070068359,847.164855957
1531743881.7274413,863.614685059,843.874938965,825.7801513669999,845.519897461
1531743881.73199,865.259643555,845.519897461,825.7801513669999,845.519897461
1531743881.7365384,863.614685059,845.519897461,832.360046387,845.519897461
1531743881.7410872,865.259643555,843.874938965,829.070068359,852.09979248
1531743881.745636,865.259643555,843.874938965,832.360046387,845.519897461
1531743881.7501845,861.969726562,843.874938965,830.715087891,838.940002441
1531743881.754733,863.614685059,843.874938965,832.360046387,842.229919434
1531743881.759282,857.0347290039999,842.229919434,832.360046387,843.874938965
1531743881.7638304,855.3897705080001,838.940002441,832.360046387,850.454833984
1531743881.7683792,857.0347290039999,835.650024414,832.360046387,858.679748535
1531743881.7729278,858.679748535,842.229919434,830.715087891,857.0347290039999
1531743881.7774765,860.3247070310001,840.584960938,832.360046387,857.0347290039999
1531743881.782025,861.969726562,838.940002441,834.0050048830001,853.744812012
1531743881.7865734,863.614685059,838.940002441,829.070068359,855.3897705080001
1531743881.7911224,866.904663086,842.229919434,829.070068359,850.454833984
1531743881.795671,870.1945800780001,843.874938965,829.070068359,855.3897705080001
1531743881.8002195,873.484558105,842.229919434,830.715087891,861.969726562
1531743881.8047686,871.839599609,842.229919434,834.0050048830001,857.0347290039999
1531743881.8093169,875.129516602,840.584960938,834.0050048830001,858.679748535
1531743881.8138654,875.129516602,843.874938965,835.650024414,860.3247070310001
1531743881.8184142,866.904663086,843.874938965,827.425109863,852.09979248
1531743881.8229628,875.129516602,842.229919434,829.070068359,855.3897705080001
1531743881.8275115,868.549621582,845.519897461,835.650024414,850.454833984
1531743881.8320599,863.614685059,843.874938965,834.0050048830001,850.454833984
1531743881.836609,865.259643555,847.164855957,837.29498291,850.454833984
1531743881.8411574,861.969726562,845.519897461,835.650024414,848.809875488
1531743881.845706,855.3897705080001,842.229919434,837.29498291,852.09979248
1531743881.8502548,858.679748535,840.584960938,835.650024414,848.809875488
1531743881.8548033,857.0347290039999,843.874938965,835.650024414,847.164855957
1531743881.8593519,855.3897705080001,845.519897461,834.0050048830001,845.519897461
1531743881.863901,855.3897705080001,847.164855957,830.715087891,843.874938965
1531743881.8684492,850.454833984,842.229919434,834.0050048830001,847.164855957
1531743881.872998,852.09979248,838.940002441,835.650024414,850.454833984
1531743881.8775465,848.809875488,842.229919434,832.360046387,829.070068359
1531743881.8820953,850.454833984,843.874938965,830.715087891,834.0050048830001
1531743881.886644,857.0347290039999,847.164855957,830.715087891,835.650024414
1531743881.8911927,855.3897705080001,840.584960938,830.715087891,840.584960938
1531743881.8957412,855.3897705080001,837.29498291,832.360046387,847.164855957
1531743881.9002898,858.679748535,838.940002441,832.360046387,845.519897461
1531743881.9048386,860.3247070310001,837.29498291,830.715087891,838.940002441
1531743881.9093874,866.904663086,842.229919434,829.070068359,840.584960938
1531743881.9139357,870.1945800780001,842.229919434,829.070068359,848.809875488
1531743881.9184847,870.1945800780001,847.164855957,824.135131836,847.164855957
1531743881.923033,868.549621582,845.519897461,825.7801513669999,853.744812012
1531743881.9275818,868.549621582,842.229919434,832.360046387,853.744812012
1531743881.9321306,866.904663086,842.229919434,832.360046387,845.519897461
1531743881.9366786,861.969726562,845.519897461,834.0050048830001,843.874938965
1531743881.9412274,860.3247070310001,845.519897461,830.715087891,842.229919434
1531743881.9457762,860.3247070310001,845.519897461,827.425109863,842.229919434
1531743881.950325,863.614685059,845.519897461,830.715087891,840.584960938
1531743881.9548733,858.679748535,845.519897461,829.070068359,840.584960938
1531743881.959422,861.969726562,847.164855957,825.7801513669999,840.584960938
1531743881.9639707,866.904663086,848.809875488,829.070068359,845.519897461
1531743881.9685194,865.259643555,848.809875488,829.070068359,853.744812012
1531743881.9730682,871.839599609,848.809875488,829.070068359,840.584960938
1531743881.9776168,870.1945800780001,842.229919434,829.070068359,835.650024414
1531743881.9821653,868.549621582,845.519897461,829.070068359,837.29498291
1531743881.9867141,863.614685059,845.519897461,827.425109863,835.650024414
1531743881.9912627,866.904663086,845.519897461,830.715087891,842.229919434
1531743881.9958115,853.744812012,845.519897461,832.360046387,838.940002441
1531743882.00036,853.744812012,838.940002441,830.715087891,837.29498291
1531743882.0049086,858.679748535,838.940002441,830.715087891,838.940002441
1531743882.009457,863.614685059,842.229919434,827.425109863,838.940002441
1531743882.0140061,865.259643555,842.229919434,825.7801513669999,842.229919434
1531743882.0185547,865.259643555,838.940002441,829.070068359,853.744812012
1531743882.0231032,861.969726562,838.940002441,832.360046387,858.679748535
1531743882.0276518,866.904663086,838.940002441,827.425109863,852.09979248
1531743882.0322006,866.904663086,842.229919434,827.425109863,850.454833984
1531743882.0367491,868.549621582,845.519897461,830.715087891,845.519897461
1531743882.0412982,870.1945800780001,840.584960938,825.7801513669999,848.809875488
1531743882.0458465,861.969726562,840.584960938,830.715087891,852.09979248
1531743882.050395,866.904663086,837.29498291,829.070068359,852.09979248
1531743882.0549438,863.614685059,837.29498291,825.7801513669999,848.809875488
1531743882.0594926,860.3247070310001,838.940002441,827.425109863,845.519897461
1531743882.0640411,870.1945800780001,840.584960938,827.425109863,848.809875488
1531743882.0685894,871.839599609,840.584960938,827.425109863,847.164855957
1531743882.0731382,868.549621582,837.29498291,827.425109863,848.809875488
1531743882.077687,870.1945800780001,837.29498291,824.135131836,853.744812012
1531743882.0822356,875.129516602,842.229919434,824.135131836,850.454833984
1531743882.0867846,871.839599609,843.874938965,825.7801513669999,843.874938965
1531743882.091333,873.484558105,843.874938965,825.7801513669999,845.519897461
1531743882.0958815,868.549621582,840.584960938,825.7801513669999,848.809875488
1531743882.1004305,863.614685059,838.940002441,827.425109863,845.519897461
1531743882.1049788,866.904663086,837.29498291,825.7801513669999,850.454833984
1531743882.1095276,861.969726562,835.650024414,829.070068359,850.454833984
1531743882.114076,861.969726562,835.650024414,827.425109863,848.809875488
1531743882.1186247,858.679748535,838.940002441,825.7801513669999,847.164855957
1531743882.1231735,853.744812012,838.940002441,830.715087891,843.874938965
1531743882.127722,858.679748535,840.584960938,825.7801513669999,847.164855957
1531743882.1322708,857.0347290039999,837.29498291,832.360046387,847.164855957
1531743882.1368196,855.3897705080001,834.0050048830001,837.29498291,843.874938965
1531743882.141368,866.904663086,838.940002441,834.0050048830001,838.940002441
1531743882.1459167,860.3247070310001,837.29498291,835.650024414,835.650024414
1531743882.1504653,861.969726562,834.0050048830001,837.29498291,842.229919434
1531743882.155014,855.3897705080001,830.715087891,835.650024414,847.164855957
1531743882.1595626,863.614685059,830.715087891,838.940002441,853.744812012
1531743882.1641114,866.904663086,830.715087891,840.584960938,845.519897461
1531743882.16866,865.259643555,830.715087891,834.0050048830001,853.744812012
1531743882.1732085,873.484558105,832.360046387,837.29498291,855.3897705080001
1531743882.1777573,870.1945800780001,834.0050048830001,834.0050048830001,857.0347290039999
1531743882.1823056,878.4194946289999,830.715087891,832.360046387,865.259643555
1531743882.1868546,875.129516602,829.070068359,832.360046387,863.614685059
1531743882.1914034,866.904663086,827.425109863,832.360046387,852.09979248
1531743882.1959515,860.3247070310001,827.425109863,832.360046387,857.0347290039999
1531743882.2005005,858.679748535,825.7801513669999,830.715087891,853.744812012
1531743882.205049,855.3897705080001,825.7801513669999,830.715087891,852.09979248
1531743882.2095973,857.0347290039999,829.070068359,832.360046387,857.0347290039999
1531743882.2141464,863.614685059,829.070068359,835.650024414,855.3897705080001
1531743882.2186947,868.549621582,835.650024414,835.650024414,858.679748535
1531743882.2232435,871.839599609,830.715087891,832.360046387,857.0347290039999
1531743882.2277925,873.484558105,827.425109863,829.070068359,852.09979248
1531743882.2323408,870.1945800780001,834.0050048830001,834.0050048830001,838.940002441
1531743882.2368894,866.904663086,834.0050048830001,832.360046387,838.940002441
1531743882.2414384,858.679748535,835.650024414,835.650024414,843.874938965
1531743882.2459867,857.0347290039999,837.29498291,834.0050048830001,843.874938965
1531743882.2505355,860.3247070310001,835.650024414,830.715087891,848.809875488
1531743882.255084,860.3247070310001,838.940002441,835.650024414,848.809875488
1531743882.2596328,860.3247070310001,837.29498291,834.0050048830001,848.809875488
1531743882.2641814,858.679748535,835.650024414,834.0050048830001,852.09979248
1531743882.2687302,857.0347290039999,840.584960938,832.360046387,852.09979248
1531743882.2732787,860.3247070310001,838.940002441,837.29498291,855.3897705080001
1531743882.2778273,857.0347290039999,838.940002441,837.29498291,853.744812012
1531743882.282376,853.744812012,840.584960938,834.0050048830001,850.454833984
1531743882.2869244,855.3897705080001,837.29498291,832.360046387,842.229919434
1531743882.2914734,855.3897705080001,843.874938965,827.425109863,845.519897461
1531743882.2960222,860.3247070310001,843.874938965,829.070068359,843.874938965
1531743882.3005705,861.969726562,842.229919434,827.425109863,842.229919434
1531743882.3051193,860.3247070310001,843.874938965,822.49017334,845.519897461
1531743882.3096678,863.614685059,842.229919434,825.7801513669999,852.09979248
1531743882.3142164,857.0347290039999,847.164855957,825.7801513669999,855.3897705080001
1531743882.3187652,865.259643555,843.874938965,824.135131836,852.09979248
1531743882.3233135,865.259643555,842.229919434,822.49017334,853.744812012
1531743882.3278625,871.839599609,842.229919434,822.49017334,858.679748535
1531743882.3324113,868.549621582,837.29498291,825.7801513669999,857.0347290039999
1531743882.3369598,866.904663086,845.519897461,825.7801513669999,858.679748535
1531743882.3415086,866.904663086,845.519897461,825.7801513669999,853.744812012
1531743882.346057,860.3247070310001,843.874938965,824.135131836,850.454833984
1531743882.3506055,866.904663086,843.874938965,824.135131836,853.744812012
1531743882.3551545,861.969726562,840.584960938,829.070068359,852.09979248
1531743882.3597033,857.0347290039999,835.650024414,830.715087891,853.744812012
1531743882.3642516,866.904663086,837.29498291,832.360046387,858.679748535
1531743882.3688002,866.904663086,838.940002441,830.715087891,852.09979248
1531743882.373349,866.904663086,837.29498291,829.070068359,853.744812012
1531743882.3778975,865.259643555,840.584960938,829.070068359,847.164855957
1531743882.3824465,858.679748535,842.229919434,827.425109863,843.874938965
1531743882.3869948,857.0347290039999,842.229919434,827.425109863,845.519897461
1531743882.3915436,865.259643555,845.519897461,825.7801513669999,847.164855957
1531743882.3960922,861.969726562,845.519897461,824.135131836,843.874938965
1531743882.4006407,863.614685059,843.874938965,825.7801513669999,842.229919434
1531743882.4051895,866.904663086,847.164855957,825.7801513669999,845.519897461
1531743882.409738,866.904663086,847.164855957,830.715087891,845.519897461
1531743882.4142866,868.549621582,843.874938965,832.360046387,843.874938965
1531743882.4188356,861.969726562,843.874938965,830.715087891,842.229919434
1531743882.423384,860.3247070310001,842.229919434,830.715087891,842.229919434
1531743882.4279327,860.3247070310001,837.29498291,830.715087891,843.874938965
1531743882.4324813,855.3897705080001,837.29498291,830.715087891,850.454833984
1531743882.4370296,858.679748535,834.0050048830001,834.0050048830001,850.454833984
1531743882.4415786,857.0347290039999,838.940002441,834.0050048830001,847.164855957
